# <Transmitter Set: Tx: 1 BS1 - Point 1> 
# <Receiver Set: Rx: 4 UE_grid > 
# <number of receiver points>
# <receiver point number> <number of paths for this point>
#	rx pt summary:
#	<received power (dBm)>
#	<mean time of arrival (sec)>
#	<delay spread (sec)>
#		path summary:
#		<path number>
#		<total interactions for path> (not including Tx and Rx)
#		<received power(dBm)>
#		<phase(deg)>
#		<time of arrival(sec)>
#		<arrival theta(deg)>
#		<arrival phi(deg)>
#		<departure theta(deg)>
#		<departure phi(deg)>
#			interactions summary:
#			<interaction description> (Tx:transmitter, Rx:receiver, T:transmission, R:reflection, D:diffraction)
#			<cartesian locations of interactions> (including Tx and Rx)
4480
1 0
2 0
3 0
4 0
5 0
6 0
7 0
8 0
9 0
10 0
11 0
12 0
13 0
14 0
15 0
16 0
17 0
18 0
19 0
20 0
21 0
22 0
23 0
24 0
25 0
26 0
27 0
28 2
-77.9563 1.53876e-07 2.43924e-10
1 0 -76.6074 -159.908 1.53841e-07 85.0229 81.5996 94.9771 -98.4004
Tx-Rx 
-25.306 -24.0135 6
-32.0162 -69.4524 2
2 1 -93.4305 23.5983 1.55568e-07 99.8802 81.5996 99.8802 -98.4004
Tx-R-Rx 
-25.306 -24.0135 6
-30.3386 -58.0927 0
-32.0162 -69.4524 2
29 2
-77.8488 1.52884e-07 2.40761e-10
1 0 -76.5512 8.87058 1.5285e-07 84.9905 84.7063 95.0095 -95.2937
Tx-Rx 
-25.306 -24.0135 6
-29.5162 -69.4524 2
2 1 -93.5503 178.862 1.54588e-07 99.9435 84.7063 99.9435 -95.2937
Tx-R-Rx 
-25.306 -24.0135 6
-28.4636 -58.0927 0
-29.5162 -69.4524 2
30 1
-76.5205 1.5231e-07 0
1 0 -76.5205 -30.7206 1.5231e-07 84.9727 87.8446 95.0273 -92.1554
Tx-Rx 
-25.306 -24.0135 6
-27.0162 -69.4524 2
31 1
-76.5157 1.52226e-07 0
1 0 -76.5157 75.2698 1.52226e-07 84.97 90.9958 95.03 -89.0042
Tx-Rx 
-25.306 -24.0135 6
-24.5162 -69.4524 2
32 1
-76.5369 1.52598e-07 0
1 0 -76.5369 -34.1081 1.52598e-07 84.9823 94.141 95.0177 -85.859
Tx-Rx 
-25.306 -24.0135 6
-22.0162 -69.4524 2
33 0
34 0
35 0
36 0
37 0
38 0
39 0
40 0
41 0
42 0
43 0
44 0
45 0
46 0
47 0
48 0
49 0
50 0
51 0
52 0
53 0
54 0
55 0
56 0
57 0
58 0
59 0
60 0
61 0
62 0
63 0
64 0
65 0
66 0
67 0
68 0
69 0
70 0
71 0
72 0
73 0
74 0
75 0
76 0
77 0
78 0
79 0
80 0
81 0
82 0
83 0
84 0
85 0
86 0
87 0
88 0
89 0
90 0
91 0
92 0
93 0
94 0
95 0
96 0
97 0
98 0
99 0
100 0
101 0
102 0
103 0
104 0
105 0
106 0
107 0
108 0
109 1
-76.068 1.44579e-07 0
1 0 -76.068 -10.1402 1.44579e-07 84.7032 84.4 95.2968 -95.6
Tx-Rx 
-25.306 -24.0135 6
-29.5162 -66.9524 2
110 1
-76.0336 1.44008e-07 2.64698e-23
1 0 -76.0336 -10.6587 1.44008e-07 84.6821 87.7192 95.3179 -92.2808
Tx-Rx 
-25.306 -24.0135 6
-27.0162 -66.9524 2
111 1
-76.0283 1.43919e-07 0
1 0 -76.0283 101.445 1.43919e-07 84.6788 91.0538 95.3212 -88.9462
Tx-Rx 
-25.306 -24.0135 6
-24.5162 -66.9524 2
112 0
113 0
114 0
115 0
116 0
117 0
118 0
119 0
120 0
121 0
122 0
123 0
124 0
125 0
126 0
127 0
128 0
129 0
130 0
131 0
132 0
133 0
134 0
135 0
136 0
137 0
138 0
139 0
140 0
141 0
142 0
143 0
144 0
145 0
146 0
147 0
148 0
149 0
150 0
151 0
152 0
153 0
154 0
155 0
156 0
157 0
158 0
159 0
160 0
161 0
162 0
163 0
164 0
165 0
166 0
167 0
168 0
169 0
170 0
171 0
172 0
173 0
174 0
175 0
176 0
177 0
178 0
179 0
180 0
181 0
182 0
183 0
184 0
185 0
186 0
187 0
188 0
189 1
-75.5569 1.36318e-07 0
1 0 -75.5569 -40.0802 1.36318e-07 84.3812 84.0562 95.6188 -95.9438
Tx-Rx 
-25.306 -24.0135 6
-29.5162 -64.4524 2
190 1
-75.5182 1.35712e-07 0
1 0 -75.5182 3.19683 1.35712e-07 84.356 87.5784 95.644 -92.4216
Tx-Rx 
-25.306 -24.0135 6
-27.0162 -64.4524 2
191 1
-75.5122 1.35617e-07 0
1 0 -75.5122 122.159 1.35617e-07 84.3521 91.1189 95.6479 -88.8811
Tx-Rx 
-25.306 -24.0135 6
-24.5162 -64.4524 2
192 0
193 0
194 0
195 0
196 0
197 0
198 0
199 0
200 0
201 0
202 0
203 0
204 0
205 0
206 0
207 0
208 0
209 0
210 0
211 0
212 0
213 0
214 0
215 0
216 0
217 0
218 0
219 0
220 0
221 0
222 0
223 0
224 0
225 0
226 0
227 0
228 0
229 0
230 0
231 0
232 0
233 0
234 0
235 0
236 0
237 0
238 0
239 0
240 0
241 0
242 0
243 0
244 0
245 0
246 0
247 0
248 0
249 0
250 0
251 0
252 0
253 0
254 0
255 0
256 0
257 0
258 0
259 0
260 0
261 0
262 0
263 0
264 0
265 0
266 0
267 0
268 0
269 1
-75.0145 1.28066e-07 0
1 0 -75.0145 -83.0644 1.28066e-07 84.0178 83.6676 95.9822 -96.3324
Tx-Rx 
-25.306 -24.0135 6
-29.5162 -61.9524 2
270 1
-74.9707 1.27421e-07 0
1 0 -74.9707 9.6337 1.27421e-07 83.9874 87.419 96.0126 -92.581
Tx-Rx 
-25.306 -24.0135 6
-27.0162 -61.9524 2
271 1
-74.9638 1.2732e-07 0
1 0 -74.9638 136.342 1.2732e-07 83.9827 91.1926 96.0173 -88.8074
Tx-Rx 
-25.306 -24.0135 6
-24.5162 -61.9524 2
272 0
273 0
274 0
275 0
276 0
277 0
278 0
279 0
280 0
281 0
282 0
283 0
284 0
285 0
286 0
287 0
288 0
289 0
290 0
291 0
292 0
293 0
294 0
295 0
296 0
297 0
298 0
299 0
300 0
301 0
302 0
303 0
304 0
305 0
306 0
307 0
308 0
309 0
310 0
311 0
312 0
313 0
314 0
315 0
316 0
317 0
318 0
319 0
320 0
321 0
322 0
323 0
324 0
325 0
326 0
327 0
328 0
329 0
330 0
331 0
332 0
333 0
334 0
335 0
336 0
337 0
338 0
339 0
340 0
341 0
342 0
343 0
344 0
345 0
346 0
347 0
348 0
349 2
-74.0054 1.19833e-07 1.14745e-10
1 0 -74.4369 -141.788 1.19827e-07 83.6049 83.225 96.3951 -96.775
Tx-Rx 
-25.306 -24.0135 6
-29.5162 -59.4524 2
2 1 -100.105 -154.101 1.22036e-07 102.635 83.225 102.635 -96.775
Tx-R-Rx 
-25.306 -24.0135 6
-28.4636 -50.5927 0
-29.5162 -59.4524 2
350 1
-74.3868 1.19137e-07 0
1 0 -74.3868 7.10307 1.19137e-07 83.5677 87.2372 96.4323 -92.7628
Tx-Rx 
-25.306 -24.0135 6
-27.0162 -59.4524 2
351 1
-74.3789 1.1903e-07 1.32349e-23
1 0 -74.3789 142.63 1.1903e-07 83.5618 91.2767 96.4382 -88.7233
Tx-Rx 
-25.306 -24.0135 6
-24.5162 -59.4524 2
352 0
353 0
354 0
355 0
356 0
357 0
358 0
359 0
360 0
361 0
362 0
363 0
364 0
365 0
366 0
367 0
368 0
369 0
370 0
371 0
372 0
373 0
374 0
375 0
376 0
377 0
378 0
379 0
380 0
381 0
382 0
383 0
384 0
385 0
386 0
387 0
388 0
389 0
390 0
391 0
392 0
393 0
394 0
395 0
396 0
397 0
398 0
399 0
400 0
401 0
402 0
403 0
404 0
405 0
406 0
407 0
408 0
409 0
410 0
411 0
412 0
413 0
414 0
415 0
416 0
417 0
418 0
419 0
420 0
421 0
422 0
423 0
424 0
425 0
426 0
427 0
428 0
429 2
-74.2842 1.11609e-07 1.23466e-10
1 0 -73.8193 140.264 1.11603e-07 83.1314 82.7161 96.8686 -97.2839
Tx-Rx 
-25.306 -24.0135 6
-29.5162 -56.9524 2
2 1 -99.4565 -35.6173 1.13972e-07 103.545 82.7161 103.545 -97.2839
Tx-R-Rx 
-25.306 -24.0135 6
-28.4636 -48.7177 0
-29.5162 -56.9524 2
430 1
-73.7615 1.10862e-07 1.32349e-23
1 0 -73.7615 -6.40526 1.10862e-07 83.0853 87.0279 96.9147 -92.9721
Tx-Rx 
-25.306 -24.0135 6
-27.0162 -56.9524 2
431 1
-73.7524 1.10747e-07 1.32349e-23
1 0 -73.7524 139.247 1.10747e-07 83.078 91.3736 96.922 -88.6264
Tx-Rx 
-25.306 -24.0135 6
-24.5162 -56.9524 2
432 0
433 0
434 0
435 0
436 0
437 0
438 0
439 0
440 0
441 0
442 0
443 0
444 0
445 0
446 0
447 0
448 0
449 0
450 0
451 0
452 0
453 0
454 0
455 0
456 0
457 0
458 0
459 0
460 0
461 0
462 0
463 0
464 0
465 0
466 0
467 0
468 0
469 0
470 0
471 0
472 0
473 0
474 0
475 0
476 0
477 0
478 0
479 0
480 0
481 0
482 0
483 0
484 0
485 0
486 0
487 0
488 0
489 0
490 0
491 0
492 0
493 0
494 0
495 0
496 0
497 0
498 0
499 0
500 0
501 0
502 0
503 0
504 0
505 0
506 0
507 0
508 0
509 2
-72.5833 1.03411e-07 1.82852e-10
1 0 -73.156 38.5027 1.03398e-07 82.5834 82.1251 97.4166 -97.8749
Tx-Rx 
-25.306 -24.0135 6
-29.5162 -54.4524 2
2 1 -96.0093 19.0563 1.05951e-07 104.593 82.1251 104.593 -97.8749
Tx-R-Rx 
-25.306 -24.0135 6
-28.4636 -46.8427 0
-29.5162 -54.4524 2
510 1
-73.0886 1.02598e-07 0
1 0 -73.0886 -33.5475 1.02598e-07 82.5253 86.7843 97.4747 -93.2157
Tx-Rx 
-25.306 -24.0135 6
-27.0162 -54.4524 2
511 1
-73.078 1.02473e-07 0
1 0 -73.078 123.851 1.02473e-07 82.5161 91.4864 97.4839 -88.5136
Tx-Rx 
-25.306 -24.0135 6
-24.5162 -54.4524 2
512 0
513 0
514 0
515 0
516 0
517 0
518 0
519 0
520 0
521 0
522 0
523 0
524 0
525 0
526 0
527 0
528 0
529 0
530 0
531 0
532 0
533 0
534 0
535 0
536 0
537 0
538 0
539 0
540 0
541 0
542 0
543 0
544 0
545 0
546 0
547 0
548 0
549 0
550 0
551 0
552 0
553 0
554 0
555 0
556 0
557 0
558 0
559 0
560 0
561 0
562 0
563 0
564 0
565 0
566 0
567 0
568 0
569 0
570 0
571 0
572 0
573 0
574 0
575 0
576 0
577 0
578 0
579 0
580 0
581 0
582 0
583 0
584 0
585 0
586 0
587 0
588 0
589 2
-72.3388 9.52456e-08 2.80481e-10
1 0 -72.44 -93.2265 9.52168e-08 81.9421 81.4304 98.0579 -98.5696
Tx-Rx 
-25.306 -24.0135 6
-29.5162 -51.9524 2
2 1 -92.2287 -6.8891 9.7983e-08 105.809 81.4304 105.809 -98.5696
Tx-R-Rx 
-25.306 -24.0135 6
-28.4636 -44.9677 0
-29.5162 -51.9524 2
590 1
-72.3604 9.43475e-08 0
1 0 -72.3604 -77.9064 9.43475e-08 81.8674 86.4972 98.1326 -93.5028
Tx-Rx 
-25.306 -24.0135 6
-27.0162 -51.9524 2
591 1
-72.3479 9.42117e-08 0
1 0 -72.3479 93.2754 9.42117e-08 81.8556 91.6193 98.1444 -88.3807
Tx-Rx 
-25.306 -24.0135 6
-24.5162 -51.9524 2
592 0
593 0
594 0
595 0
596 0
597 0
598 0
599 0
600 0
601 0
602 0
603 0
604 0
605 0
606 0
607 0
608 0
609 0
610 0
611 0
612 0
613 0
614 0
615 0
616 0
617 0
618 0
619 0
620 0
621 0
622 0
623 0
624 0
625 0
626 0
627 0
628 0
629 0
630 0
631 0
632 0
633 0
634 0
635 0
636 0
637 0
638 0
639 0
640 0
641 0
642 0
643 0
644 0
645 0
646 0
647 0
648 0
649 0
650 0
651 0
652 0
653 0
654 0
655 0
656 0
657 0
658 0
659 0
660 0
661 0
662 0
663 0
664 0
665 0
666 0
667 0
668 0
669 0
670 1
-71.5673 8.61146e-08 0
1 0 -71.5673 -144.431 8.61146e-08 81.0838 86.154 98.9162 -93.846
Tx-Rx 
-25.306 -24.0135 6
-27.0162 -49.4524 2
671 1
-71.5523 8.59658e-08 0
1 0 -71.5523 43.144 8.59658e-08 81.0682 91.7783 98.9318 -88.2217
Tx-Rx 
-25.306 -24.0135 6
-24.5162 -49.4524 2
672 0
673 0
674 0
675 0
676 0
677 0
678 0
679 0
680 0
681 0
682 0
683 0
684 0
685 0
686 0
687 0
688 0
689 0
690 0
691 0
692 0
693 0
694 0
695 0
696 0
697 0
698 0
699 0
700 0
701 0
702 0
703 0
704 0
705 0
706 0
707 0
708 0
709 0
710 0
711 0
712 0
713 0
714 0
715 0
716 0
717 0
718 0
719 0
720 0
721 0
722 0
723 0
724 0
725 0
726 0
727 0
728 0
729 0
730 0
731 0
732 0
733 0
734 0
735 0
736 0
737 0
738 0
739 0
740 0
741 0
742 0
743 0
744 0
745 0
746 0
747 0
748 0
749 2
-71.7153 7.90567e-08 5.70344e-10
1 0 -70.8134 -123.833 7.89554e-08 80.2678 79.5997 99.7322 -100.4
Tx-Rx 
-25.306 -24.0135 6
-29.5162 -46.9524 2
2 1 -85.8302 4.26866 8.22701e-08 108.933 79.5997 108.933 -100.4
Tx-R-Rx 
-25.306 -24.0135 6
-28.4636 -41.2177 0
-29.5162 -46.9524 2
750 1
-70.697 7.79049e-08 0
1 0 -70.697 119.852 7.79049e-08 80.1353 85.7363 99.8647 -94.2637
Tx-Rx 
-25.306 -24.0135 6
-27.0162 -46.9524 2
751 1
-70.6787 7.77403e-08 0
1 0 -70.6787 -32.7662 7.77403e-08 80.1142 91.972 99.8858 -88.028
Tx-Rx 
-25.306 -24.0135 6
-24.5162 -46.9524 2
752 0
753 0
754 0
755 0
756 0
757 0
758 0
759 0
760 0
761 0
762 0
763 0
764 0
765 0
766 0
767 0
768 0
769 0
770 0
771 0
772 0
773 0
774 0
775 0
776 0
777 0
778 0
779 0
780 0
781 0
782 0
783 0
784 0
785 0
786 0
787 0
788 0
789 0
790 0
791 0
792 0
793 0
794 0
795 0
796 0
797 0
798 0
799 0
800 0
801 0
802 0
803 0
804 0
805 0
806 0
807 0
808 0
809 0
810 0
811 0
812 0
813 0
814 0
815 0
816 0
817 0
818 0
819 0
820 0
821 0
822 0
823 0
824 0
825 0
826 0
827 0
828 0
829 2
-68.4545 7.10664e-08 7.67684e-10
1 0 -69.8784 -51.8779 7.08983e-08 79.1491 78.3605 100.851 -101.639
Tx-Rx 
-25.306 -24.0135 6
-29.5162 -44.4524 2
2 1 -83.0701 -12.8137 7.4572e-08 110.975 78.3605 110.975 -101.639
Tx-R-Rx 
-25.306 -24.0135 6
-28.4636 -39.3427 0
-29.5162 -44.4524 2
830 1
-69.7337 6.97265e-08 0
1 0 -69.7337 -15.3696 6.97265e-08 78.9645 85.217 101.036 -94.783
Tx-Rx 
-25.306 -24.0135 6
-27.0162 -44.4524 2
831 1
-69.7107 6.95425e-08 0
1 0 -69.7107 -143.603 6.95425e-08 78.9349 92.213 101.065 -87.787
Tx-Rx 
-25.306 -24.0135 6
-24.5162 -44.4524 2
832 0
833 0
834 0
835 0
836 0
837 0
838 0
839 0
840 0
841 0
842 0
843 0
844 0
845 0
846 0
847 0
848 0
849 0
850 0
851 0
852 0
853 0
854 0
855 0
856 0
857 0
858 0
859 0
860 0
861 0
862 0
863 0
864 0
865 0
866 0
867 0
868 0
869 0
870 0
871 0
872 0
873 0
874 0
875 0
876 0
877 0
878 0
879 0
880 0
881 0
882 0
883 0
884 0
885 0
886 0
887 0
888 0
889 0
890 0
891 0
892 0
893 0
894 0
895 0
896 0
897 0
898 0
899 0
900 0
901 0
902 0
903 0
904 0
905 0
906 0
907 0
908 0
909 2
-71.0045 6.31793e-08 1.00772e-09
1 0 -68.8408 -73.4765 6.29155e-08 77.7522 76.792 102.248 -103.208
Tx-Rx 
-25.306 -24.0135 6
-29.5162 -41.9524 2
2 1 -80.4806 134.855 6.70281e-08 113.469 76.792 113.469 -103.208
Tx-R-Rx 
-25.306 -24.0135 6
-28.4636 -37.4677 0
-29.5162 -41.9524 2
910 1
-68.6562 6.15919e-08 0
1 0 -68.6562 154.165 6.15919e-08 77.4848 84.5542 102.515 -95.4458
Tx-Rx 
-25.306 -24.0135 6
-27.0162 -41.9524 2
911 1
-68.6267 6.13836e-08 0
1 0 -68.6267 56.6391 6.13836e-08 77.4416 92.521 102.558 -87.479
Tx-Rx 
-25.306 -24.0135 6
-24.5162 -41.9524 2
912 0
913 0
914 0
915 0
916 0
917 0
918 0
919 0
920 0
921 0
922 0
923 0
924 0
925 0
926 0
927 0
928 0
929 0
930 0
931 0
932 0
933 0
934 0
935 0
936 0
937 0
938 0
939 0
940 0
941 0
942 0
943 0
944 0
945 0
946 0
947 0
948 0
949 0
950 0
951 0
952 0
953 0
954 0
955 0
956 0
957 0
958 0
959 0
960 0
961 0
962 0
963 0
964 0
965 0
966 0
967 0
968 0
969 0
970 0
971 0
972 0
973 0
974 0
975 0
976 0
977 0
978 0
979 0
980 0
981 0
982 0
983 0
984 0
985 0
986 0
987 0
988 0
989 2
-68.5474 5.54346e-08 1.29826e-09
1 0 -67.6791 130.652 5.50392e-08 75.966 74.7464 104.034 -105.254
Tx-Rx 
-25.306 -24.0135 6
-29.5162 -39.4524 2
2 1 -78.0049 13.9245 5.9697e-08 116.561 74.7464 116.561 -105.254
Tx-R-Rx 
-25.306 -24.0135 6
-28.4636 -35.5927 0
-29.5162 -39.4524 2
990 1
-67.4362 5.35212e-08 0
1 0 -67.4362 -116.738 5.35212e-08 75.5594 83.6791 104.441 -96.3209
Tx-Rx 
-25.306 -24.0135 6
-27.0162 -39.4524 2
991 1
-67.3972 5.32814e-08 6.61744e-24
1 0 -67.3972 -174.517 5.32814e-08 75.493 92.9286 104.507 -87.0714
Tx-Rx 
-25.306 -24.0135 6
-24.5162 -39.4524 2
992 0
993 0
994 0
995 0
996 0
997 0
998 0
999 0
1000 0
1001 0
1002 0
1003 0
1004 0
1005 0
1006 0
1007 0
1008 0
1009 0
1010 0
1011 0
1012 0
1013 0
1014 0
1015 0
1016 0
1017 0
1018 0
1019 0
1020 0
1021 0
1022 0
1023 0
1024 0
1025 0
1026 0
1027 0
1028 0
1029 0
1030 0
1031 0
1032 0
1033 0
1034 0
1035 0
1036 0
1037 0
1038 0
1039 0
1040 0
1041 0
1042 0
1043 0
1044 0
1045 0
1046 0
1047 0
1048 0
1049 0
1050 0
1051 0
1052 0
1053 0
1054 0
1055 0
1056 0
1057 0
1058 0
1059 0
1060 0
1061 0
1062 0
1063 0
1064 0
1065 0
1066 0
1067 0
1068 0
1069 2
-66.3266 4.7891e-08 1.64762e-09
1 0 -66.3671 133.426 4.73227e-08 73.618 71.9757 106.382 -108.024
Tx-Rx 
-25.306 -24.0135 6
-29.5162 -36.9524 2
2 1 -75.6118 -127.43 5.26674e-08 120.453 71.9757 120.453 -108.024
Tx-R-Rx 
-25.306 -24.0135 6
-28.4636 -33.7177 0
-29.5162 -36.9524 2
1070 1
-66.0351 4.55483e-08 0
1 0 -66.0351 -150.851 4.55483e-08 72.9607 82.4707 107.039 -97.5293
Tx-Rx 
-25.306 -24.0135 6
-27.0162 -36.9524 2
1071 1
-65.9811 4.52662e-08 0
1 0 -65.9811 -155.425 4.52662e-08 72.8513 93.4931 107.149 -86.5069
Tx-Rx 
-25.306 -24.0135 6
-24.5162 -36.9524 2
1072 0
1073 0
1074 0
1075 0
1076 0
1077 0
1078 0
1079 0
1080 0
1081 0
1082 0
1083 0
1084 0
1085 0
1086 0
1087 0
1088 0
1089 0
1090 0
1091 0
1092 0
1093 0
1094 0
1095 0
1096 0
1097 0
1098 0
1099 0
1100 0
1101 0
1102 0
1103 0
1104 0
1105 0
1106 0
1107 0
1108 0
1109 0
1110 0
1111 0
1112 0
1113 0
1114 0
1115 0
1116 0
1117 0
1118 0
1119 0
1120 0
1121 0
1122 0
1123 0
1124 0
1125 0
1126 0
1127 0
1128 0
1129 0
1130 0
1131 0
1132 0
1133 0
1134 0
1135 0
1136 0
1137 0
1138 0
1139 0
1140 0
1141 0
1142 0
1143 0
1144 0
1145 0
1146 0
1147 0
1148 0
1149 2
-63.7732 4.06404e-08 2.06135e-09
1 0 -64.8762 177.766 3.98589e-08 70.4364 68.035 109.564 -111.965
Tx-Rx 
-25.306 -24.0135 6
-29.5162 -34.4524 2
2 1 -73.3007 -103.29 4.60777e-08 125.403 68.035 125.403 -111.965
Tx-R-Rx 
-25.306 -24.0135 6
-28.4636 -31.8427 0
-29.5162 -34.4524 2
1150 1
-64.4006 3.77352e-08 0
1 0 -64.4006 -26.3389 3.77352e-08 69.2863 80.696 110.714 -99.304
Tx-Rx 
-25.306 -24.0135 6
-27.0162 -34.4524 2
1151 1
-64.3217 3.73942e-08 0
1 0 -64.3217 43.2919 3.73942e-08 69.0886 94.3268 110.911 -85.6732
Tx-Rx 
-25.306 -24.0135 6
-24.5162 -34.4524 2
1152 0
1153 0
1154 0
1155 0
1156 0
1157 0
1158 0
1159 0
1160 0
1161 0
1162 0
1163 0
1164 0
1165 0
1166 0
1167 0
1168 0
1169 0
1170 0
1171 0
1172 0
1173 0
1174 0
1175 0
1176 0
1177 0
1178 0
1179 0
1180 0
1181 0
1182 0
1183 0
1184 0
1185 0
1186 0
1187 0
1188 0
1189 0
1190 0
1191 0
1192 0
1193 0
1194 0
1195 0
1196 0
1197 0
1198 0
1199 0
1200 0
1201 0
1202 0
1203 0
1204 0
1205 0
1206 0
1207 0
1208 0
1209 0
1210 0
1211 0
1212 0
1213 0
1214 0
1215 0
1216 0
1217 0
1218 0
1219 0
1220 0
1221 0
1222 0
1223 0
1224 0
1225 0
1226 0
1227 0
1228 0
1229 2
-64.8682 3.38371e-08 2.53197e-09
1 0 -63.1886 45.8516 3.28208e-08 66.0048 62.0619 113.995 -117.938
Tx-Rx 
-25.306 -24.0135 6
-29.5162 -31.9524 2
2 1 -71.1172 172.738 4.0145e-08 131.677 62.0619 131.677 -117.938
Tx-R-Rx 
-25.306 -24.0135 6
-28.4636 -29.9677 0
-29.5162 -31.9524 2
1230 1
-62.4675 3.02062e-08 0
1 0 -62.4675 100.216 3.02062e-08 63.7774 77.8432 116.223 -102.157
Tx-Rx 
-25.306 -24.0135 6
-27.0162 -31.9524 2
1231 1
-62.3439 2.97791e-08 0
1 0 -62.3439 -81.6867 2.97791e-08 63.372 95.6815 116.628 -84.3185
Tx-Rx 
-25.306 -24.0135 6
-24.5162 -31.9524 2
1232 0
1233 0
1234 0
1235 0
1236 0
1237 0
1238 0
1239 0
1240 0
1241 0
1242 0
1243 0
1244 0
1245 0
1246 0
1247 0
1248 0
1249 0
1250 0
1251 0
1252 0
1253 0
1254 0
1255 0
1256 0
1257 0
1258 0
1259 0
1260 0
1261 0
1262 0
1263 0
1264 0
1265 0
1266 0
1267 0
1268 0
1269 0
1270 0
1271 0
1272 0
1273 0
1274 0
1275 0
1276 0
1277 0
1278 0
1279 0
1280 0
1281 0
1282 0
1283 0
1284 0
1285 0
1286 0
1287 0
1288 0
1289 0
1290 0
1291 0
1292 0
1293 0
1294 0
1295 0
1296 0
1297 0
1298 0
1299 0
1300 0
1301 0
1302 0
1303 0
1304 0
1305 0
1306 0
1307 0
1308 0
1309 2
-61.7583 2.77715e-08 3.01436e-09
1 0 -61.3465 28.443 2.65489e-08 59.8193 52.257 120.181 -127.743
Tx-Rx 
-25.306 -24.0135 6
-29.5162 -29.4524 2
2 1 -69.1843 -79.8757 3.52031e-08 139.313 52.257 139.313 -127.743
Tx-R-Rx 
-25.306 -24.0135 6
-28.4636 -28.0927 0
-29.5162 -29.4524 2
1310 1
-60.19 2.3239e-08 0
1 0 -60.19 -121.192 2.3239e-08 54.9473 72.545 125.053 -107.455
Tx-Rx 
-25.306 -24.0135 6
-27.0162 -29.4524 2
1311 1
-59.9789 2.26812e-08 0
1 0 -59.9789 -138.279 2.26812e-08 53.9525 98.2626 126.048 -81.7374
Tx-Rx 
-25.306 -24.0135 6
-24.5162 -29.4524 2
1312 0
1313 0
1314 0
1315 0
1316 0
1317 0
1318 0
1319 0
1320 0
1321 0
1322 0
1323 0
1324 0
1325 0
1326 0
1327 0
1328 0
1329 0
1330 0
1331 0
1332 0
1333 0
1334 0
1335 0
1336 0
1337 0
1338 0
1339 0
1340 0
1341 0
1342 0
1343 0
1344 0
1345 0
1346 0
1347 0
1348 0
1349 0
1350 0
1351 0
1352 0
1353 0
1354 0
1355 0
1356 0
1357 0
1358 0
1359 0
1360 0
1361 0
1362 0
1363 0
1364 0
1365 0
1366 0
1367 0
1368 0
1369 0
1370 0
1371 0
1372 0
1373 0
1374 0
1375 0
1376 0
1377 0
1378 0
1379 0
1380 0
1381 0
1382 0
1383 0
1384 0
1385 0
1386 0
1387 0
1388 0
1389 2
-56.735 2.305e-08 3.39856e-09
1 0 -59.6018 -4.13753 2.17176e-08 52.0796 34.9167 127.92 -145.083
Tx-Rx 
-25.306 -24.0135 6
-29.5162 -26.9524 2
2 1 -67.735 -8.98854 3.17186e-08 147.307 34.9167 147.307 -145.083
Tx-R-Rx 
-25.306 -24.0135 6
-28.4636 -26.2177 0
-29.5162 -26.9524 2
1390 1
-57.7351 1.75175e-08 3.30872e-24
1 0 -57.7351 -112.1 1.75175e-08 40.3667 59.8043 139.633 -120.196
Tx-Rx 
-25.306 -24.0135 6
-27.0162 -26.9524 2
1391 1
-57.3565 1.67704e-08 0
1 0 -57.3565 109.278 1.67704e-08 37.2636 105.043 142.736 -74.9572
Tx-Rx 
-25.306 -24.0135 6
-24.5162 -26.9524 2
1392 0
1393 0
1394 0
1395 0
1396 0
1397 0
1398 0
1399 0
1400 0
1401 0
1402 0
1403 0
1404 0
1405 0
1406 0
1407 0
1408 0
1409 0
1410 0
1411 0
1412 0
1413 0
1414 0
1415 0
1416 0
1417 0
1418 0
1419 0
1420 0
1421 0
1422 0
1423 0
1424 0
1425 0
1426 0
1427 0
1428 0
1429 0
1430 0
1431 0
1432 0
1433 0
1434 0
1435 0
1436 0
1437 0
1438 0
1439 0
1440 0
1441 0
1442 0
1443 0
1444 0
1445 0
1446 0
1447 0
1448 0
1449 0
1450 0
1451 0
1452 0
1453 0
1454 0
1455 0
1456 0
1457 0
1458 0
1459 0
1460 0
1461 0
1462 0
1463 0
1464 0
1465 0
1466 0
1467 2
-61.8603 3.45286e-08 2.48036e-09
1 0 -63.3761 -136.543 3.35369e-08 66.5483 2.7282 113.452 -177.272
Tx-Rx 
-25.306 -24.0135 6
-34.5162 -24.4524 2
2 1 -71.3392 152.27 4.07326e-08 130.946 2.7282 130.946 -177.272
Tx-R-Rx 
-25.306 -24.0135 6
-32.2136 -24.3427 0
-34.5162 -24.4524 2
1468 3
-61.7056 2.74244e-08 3.41365e-09
1 0 -61.2009 -135.294 2.61074e-08 59.2542 3.74214 120.746 -176.258
Tx-Rx 
-25.306 -24.0135 6
-32.0162 -24.4524 2
2 1 -69.0498 -21.8413 3.48714e-08 139.951 3.74214 139.951 -176.258
Tx-R-Rx 
-25.306 -24.0135 6
-30.3386 -24.3427 0
-32.0162 -24.4524 2
3 2 -86.0674 -175.736 5.65595e-08 118.162 179.587 118.162 -177.835
Tx-R-R-Rx 
-25.306 -24.0135 6
-36.1292 -24.4227 0.201876
-35.7521 -24.4254 0
-32.0162 -24.4524 2
1469 2
-59.1546 2.0782e-08 3.56467e-09
1 0 -58.6363 -5.37651 1.94328e-08 46.621 5.95122 133.379 -174.049
Tx-Rx 
-25.306 -24.0135 6
-29.5162 -24.4524 2
2 1 -67.0753 104.37 3.02002e-08 152.116 5.95122 152.116 -174.049
Tx-R-Rx 
-25.306 -24.0135 6
-28.4636 -24.3427 0
-29.5162 -24.4524 2
1470 1
-56.1463 1.45893e-08 1.65436e-24
1 0 -56.1463 -22.4704 1.45893e-08 23.8166 14.3932 156.183 -165.607
Tx-Rx 
-25.306 -24.0135 6
-27.0162 -24.4524 2
1471 1
-55.5893 1.36832e-08 0
1 0 -55.5893 39.2038 1.36832e-08 12.729 150.94 167.271 -29.0598
Tx-Rx 
-25.306 -24.0135 6
-24.5162 -24.4524 2
1472 0
1473 0
1474 0
1475 0
1476 0
1477 0
1478 0
1479 0
1480 0
1481 0
1482 0
1483 0
1484 0
1485 0
1486 0
1487 0
1488 0
1489 0
1490 0
1491 0
1492 0
1493 0
1494 0
1495 0
1496 0
1497 0
1498 0
1499 0
1500 0
1501 0
1502 0
1503 0
1504 0
1505 0
1506 0
1507 0
1508 0
1509 0
1510 0
1511 0
1512 0
1513 0
1514 0
1515 0
1516 0
1517 0
1518 0
1519 0
1520 0
1521 0
1522 0
1523 0
1524 0
1525 0
1526 0
1527 0
1528 0
1529 0
1530 0
1531 0
1532 0
1533 0
1534 0
1535 0
1536 0
1537 0
1538 0
1539 0
1540 0
1541 0
1542 0
1543 0
1544 0
1545 0
1546 0
1547 2
-62.1936 3.51722e-08 2.43308e-09
1 0 -63.547 103.581 3.42035e-08 67.0318 -12.6142 112.968 167.386
Tx-Rx 
-25.306 -24.0135 6
-34.5162 -21.9524 2
2 1 -71.546 178.503 4.12831e-08 130.286 -12.6142 130.286 167.386
Tx-R-Rx 
-25.306 -24.0135 6
-32.2136 -22.4677 0
-34.5162 -21.9524 2
1548 3
-58.3144 2.82539e-08 3.36471e-09
1 0 -61.4795 -127.43 2.69583e-08 60.3241 -17.075 119.676 162.925
Tx-Rx 
-25.306 -24.0135 6
-32.0162 -21.9524 2
2 1 -69.3093 -110.248 3.55129e-08 138.735 -17.075 138.735 162.925
Tx-R-Rx 
-25.306 -24.0135 6
-30.3386 -22.4677 0
-32.0162 -21.9524 2
3 2 -86.1193 -160.57 5.71188e-08 117.862 -170.905 117.862 172.657
Tx-R-R-Rx 
-25.306 -24.0135 6
-36.1568 -22.6152 0.21667
-35.7521 -22.5504 0
-32.0162 -21.9524 2
1549 3
-60.4029 2.195e-08 3.73963e-09
1 0 -59.1268 12.0942 2.05618e-08 49.5255 -26.0843 130.474 153.916
Tx-Rx 
-25.306 -24.0135 6
-29.5162 -21.9524 2
2 1 -67.3985 -106.276 3.09388e-08 149.632 -26.0843 149.632 153.916
Tx-R-Rx 
-25.306 -24.0135 6
-28.4636 -22.4677 0
-29.5162 -21.9524 2
3 2 -88.4327 -139.275 6.45294e-08 114.435 -172.191 114.435 173.943
Tx-R-R-Rx 
-25.306 -24.0135 6
-36.153 -22.8626 1.0438
-33.8771 -22.5504 0
-29.5162 -21.9524 2
1550 1
-56.9818 1.60624e-08 0
1 0 -56.9818 -78.6051 1.60624e-08 33.8046 -50.3164 146.195 129.684
Tx-Rx 
-25.306 -24.0135 6
-27.0162 -21.9524 2
1551 1
-56.5276 1.52441e-08 0
1 0 -56.5276 -127.576 1.52441e-08 28.8906 -110.967 151.109 69.0331
Tx-Rx 
-25.306 -24.0135 6
-24.5162 -21.9524 2
1552 0
1553 0
1554 0
1555 0
1556 0
1557 0
1558 0
1559 0
1560 0
1561 0
1562 0
1563 0
1564 0
1565 0
1566 0
1567 0
1568 0
1569 0
1570 0
1571 0
1572 0
1573 0
1574 0
1575 0
1576 0
1577 0
1578 0
1579 0
1580 0
1581 0
1582 0
1583 0
1584 0
1585 0
1586 0
1587 0
1588 0
1589 0
1590 0
1591 0
1592 0
1593 0
1594 0
1595 0
1596 0
1597 0
1598 0
1599 0
1600 0
1601 0
1602 0
1603 0
1604 0
1605 0
1606 0
1607 0
1608 0
1609 0
1610 0
1611 0
1612 0
1613 0
1614 0
1615 0
1616 0
1617 0
1618 0
1619 0
1620 0
1621 0
1622 0
1623 0
1624 0
1625 0
1626 0
1627 2
-65.0373 3.76803e-08 2.25589e-09
1 0 -64.1825 72.6028 3.67995e-08 68.7344 -26.3458 111.266 153.654
Tx-Rx 
-25.306 -24.0135 6
-34.5162 -19.4524 2
2 1 -72.3517 -42.4867 4.34583e-08 127.897 -26.3458 127.897 153.654
Tx-R-Rx 
-25.306 -24.0135 6
-32.2136 -20.5927 0
-34.5162 -19.4524 2
1628 3
-65.6264 3.1389e-08 3.18189e-09
1 0 -62.4612 128.164 3.0184e-08 63.7567 -34.2052 116.243 145.795
Tx-Rx 
-25.306 -24.0135 6
-32.0162 -19.4524 2
2 1 -70.301 -29.0232 3.80196e-08 134.596 -34.2052 134.596 145.795
Tx-R-Rx 
-25.306 -24.0135 6
-30.3386 -20.5927 0
-32.0162 -19.4524 2
3 2 -86.258 156.611 5.88669e-08 116.966 -161.873 116.966 163.625
Tx-R-R-Rx 
-25.306 -24.0135 6
-36.1843 -20.8169 0.231389
-35.7521 -20.6754 0
-32.0162 -19.4524 2
1629 3
-58.0054 2.59698e-08 3.49871e-09
1 0 -60.6983 -85.9947 2.46397e-08 57.2018 -47.2912 122.798 132.709
Tx-Rx 
-25.306 -24.0135 6
-29.5162 -19.4524 2
2 1 -68.605 -94.8394 3.37866e-08 142.192 -47.2912 142.192 132.709
Tx-R-Rx 
-25.306 -24.0135 6
-28.4636 -20.5927 0
-29.5162 -19.4524 2
3 2 -88.6487 64.3576 6.60817e-08 113.825 -164.334 113.825 166.085
Tx-R-R-Rx 
-25.306 -24.0135 6
-36.1766 -21.3204 1.05461
-33.8771 -20.6754 0
-29.5162 -19.4524 2
1630 2
-59.3952 2.10659e-08 1.34386e-09
1 0 -59.323 140.277 2.10315e-08 50.6087 -69.4466 129.391 110.553
Tx-Rx 
-25.306 -24.0135 6
-27.0162 -19.4524 2
2 2 -91.1541 30.7392 7.35353e-08 111.285 -166.217 111.285 167.969
Tx-R-R-Rx 
-25.306 -24.0135 6
-36.1708 -21.698 1.67221
-32.0021 -20.6754 0
-27.0162 -19.4524 2
1631 1
-59.0639 2.04134e-08 0
1 0 -59.0639 -160.909 2.04134e-08 49.1691 -99.8242 130.831 80.1758
Tx-Rx 
-25.306 -24.0135 6
-24.5162 -19.4524 2
1632 0
1633 0
1634 0
1635 0
1636 0
1637 0
1638 0
1639 0
1640 0
1641 0
1642 0
1643 0
1644 0
1645 0
1646 0
1647 0
1648 0
1649 0
1650 0
1651 0
1652 0
1653 0
1654 0
1655 0
1656 0
1657 0
1658 0
1659 0
1660 0
1661 0
1662 0
1663 0
1664 0
1665 0
1666 0
1667 0
1668 0
1669 0
1670 0
1671 0
1672 0
1673 0
1674 0
1675 0
1676 0
1677 0
1678 0
1679 0
1680 0
1681 0
1682 0
1683 0
1684 0
1685 0
1686 0
1687 0
1688 0
1689 0
1690 0
1691 0
1692 0
1693 0
1694 0
1695 0
1696 0
1697 0
1698 0
1699 0
1700 0
1701 0
1702 0
1703 0
1704 0
1705 0
1706 0
1707 3
-68.4622 4.25498e-08 3.15401e-09
1 0 -65.1128 -129.282 4.09597e-08 70.9827 -37.4761 109.017 142.524
Tx-Rx 
-25.306 -24.0135 6
-34.5162 -16.9524 2
2 1 -73.642 132.627 4.70332e-08 124.58 -37.4761 124.58 142.524
Tx-R-Rx 
-25.306 -24.0135 6
-32.2136 -18.7177 0
-34.5162 -16.9524 2
3 1 -74.0684 44.7178 5.01051e-08 74.5512 -149.287 105.449 151.039
Tx-R-Rx 
-25.306 -24.0135 6
-36.2278 -17.9692 2.55022
-34.5162 -16.9524 2
1708 3
-63.6019 3.6189e-08 2.92163e-09
1 0 -63.7808 8.07894 3.51364e-08 67.6751 -46.4598 112.325 133.54
Tx-Rx 
-25.306 -24.0135 6
-32.0162 -16.9524 2
2 1 -71.8355 -79.6087 4.20593e-08 129.395 -46.4598 129.395 133.54
Tx-R-Rx 
-25.306 -24.0135 6
-30.3386 -18.7177 0
-32.0162 -16.9524 2
3 2 -86.5818 -176.92 6.17029e-08 115.634 -153.68 115.634 155.432
Tx-R-R-Rx 
-25.306 -24.0135 6
-36.2117 -19.0278 0.246033
-35.7521 -18.8004 0
-32.0162 -16.9524 2
1709 3
-60.8836 3.16728e-08 3.15132e-09
1 0 -62.5533 82.5668 3.05059e-08 64.0544 -59.1946 115.946 120.805
Tx-Rx 
-25.306 -24.0135 6
-29.5162 -16.9524 2
2 1 -70.4005 8.30658 3.82757e-08 134.219 -59.1946 134.219 120.805
Tx-R-Rx 
-25.306 -24.0135 6
-28.4636 -18.7177 0
-29.5162 -16.9524 2
3 2 -89.0414 105.396 6.86201e-08 112.893 -157.034 112.893 158.786
Tx-R-R-Rx 
-25.306 -24.0135 6
-36.2001 -19.7849 1.06538
-33.8771 -18.8004 0
-29.5162 -16.9524 2
1710 2
-61.4598 2.77227e-08 1.5393e-09
1 0 -61.7069 51.4207 2.76735e-08 61.1644 -76.3853 118.836 103.615
Tx-Rx 
-25.306 -24.0135 6
-27.0162 -16.9524 2
2 2 -91.6037 25.3923 7.58246e-08 110.613 -159.663 110.613 161.414
Tx-R-R-Rx 
-25.306 -24.0135 6
-36.1914 -20.3532 1.68046
-32.0021 -18.8004 0
-27.0162 -16.9524 2
1711 1
-61.5591 2.72067e-08 0
1 0 -61.5591 -80.4267 2.72067e-08 60.6217 -96.3823 119.378 83.6177
Tx-Rx 
-25.306 -24.0135 6
-24.5162 -16.9524 2
1712 0
1713 0
1714 0
1715 0
1716 0
1717 0
1718 0
1719 0
1720 0
1721 0
1722 0
1723 0
1724 0
1725 0
1726 0
1727 0
1728 0
1729 0
1730 0
1731 0
1732 0
1733 0
1734 0
1735 0
1736 0
1737 0
1738 0
1739 0
1740 0
1741 0
1742 0
1743 0
1744 0
1745 0
1746 0
1747 0
1748 0
1749 0
1750 0
1751 0
1752 0
1753 0
1754 0
1755 0
1756 0
1757 0
1758 0
1759 0
1760 0
1761 0
1762 0
1763 0
1764 0
1765 0
1766 0
1767 0
1768 0
1769 0
1770 0
1771 0
1772 0
1773 0
1774 0
1775 0
1776 0
1777 0
1778 0
1779 0
1780 0
1781 0
1782 0
1783 0
1784 0
1785 0
1786 0
1787 3
-61.6074 4.78358e-08 3.03784e-09
1 0 -66.1705 27.2152 4.62641e-08 73.2322 -46.071 106.768 133.929
Tx-Rx 
-25.306 -24.0135 6
-34.5162 -14.4524 2
2 1 -74.1375 21.1815 5.46957e-08 75.876 -141.517 104.124 143.269
Tx-R-Rx 
-25.306 -24.0135 6
-36.2604 -15.839 2.56069
-34.5162 -14.4524 2
3 1 -75.2843 -11.4569 5.17183e-08 121.074 -46.071 121.074 133.929
Tx-R-Rx 
-25.306 -24.0135 6
-32.2136 -16.8427 0
-34.5162 -14.4524 2
1788 4
-64.1124 4.34924e-08 5.63521e-09
1 0 -65.1631 -68.8986 4.11975e-08 71.0966 -54.9381 108.903 125.062
Tx-Rx 
-25.306 -24.0135 6
-32.0162 -14.4524 2
2 1 -73.7156 -128.514 4.72404e-08 124.407 -54.9381 124.407 125.062
Tx-R-Rx 
-25.306 -24.0135 6
-30.3386 -16.8427 0
-32.0162 -14.4524 2
3 1 -75.5295 18.0143 6.12693e-08 77.4178 -146.497 102.582 148.249
Tx-R-Rx 
-25.306 -24.0135 6
-36.2389 -17.2477 3.1303
-32.0162 -14.4524 2
4 2 -87.189 96.6459 6.54854e-08 114.056 -146.497 114.056 148.249
Tx-R-R-Rx 
-25.306 -24.0135 6
-36.2389 -17.2477 0.260603
-35.7521 -16.9254 0
-32.0162 -14.4524 2
1789 3
-61.1816 3.82752e-08 2.79327e-09
1 0 -64.306 128.446 3.73266e-08 69.049 -66.234 110.951 113.766
Tx-Rx 
-25.306 -24.0135 6
-29.5162 -14.4524 2
2 1 -72.5152 113.927 4.39055e-08 127.444 -66.234 127.444 113.766
Tx-R-Rx 
-25.306 -24.0135 6
-28.4636 -16.8427 0
-29.5162 -14.4524 2
3 2 -89.6695 115.11 7.20404e-08 111.749 -150.443 111.749 152.195
Tx-R-R-Rx 
-25.306 -24.0135 6
-36.2235 -18.256 1.0761
-33.8771 -16.9254 0
-29.5162 -14.4524 2
1790 2
-63.5488 3.51115e-08 1.64444e-09
1 0 -63.7593 117.249 3.50498e-08 67.6169 -79.8589 112.383 100.141
Tx-Rx 
-25.306 -24.0135 6
-27.0162 -14.4524 2
2 2 -92.2728 67.2627 7.89333e-08 109.766 -153.618 109.766 155.37
Tx-R-R-Rx 
-25.306 -24.0135 6
-36.2119 -19.0135 1.68868
-32.0021 -16.9254 0
-27.0162 -14.4524 2
1791 2
-63.8969 3.47197e-08 1.38399e-09
1 0 -63.6678 -139.868 3.46824e-08 67.3667 -94.7224 112.633 85.2776
Tx-Rx 
-25.306 -24.0135 6
-24.5162 -14.4524 2
2 2 -95.0582 54.8763 8.6083e-08 108.065 -156.214 108.065 157.966
Tx-R-R-Rx 
-25.306 -24.0135 6
-36.2029 -19.6034 2.1657
-30.1271 -16.9254 0
-24.5162 -14.4524 2
1792 0
1793 0
1794 0
1795 0
1796 0
1797 0
1798 0
1799 0
1800 0
1801 0
1802 0
1803 0
1804 0
1805 0
1806 0
1807 0
1808 0
1809 0
1810 0
1811 0
1812 0
1813 0
1814 0
1815 0
1816 0
1817 0
1818 0
1819 0
1820 0
1821 0
1822 0
1823 0
1824 0
1825 0
1826 0
1827 0
1828 0
1829 0
1830 0
1831 0
1832 0
1833 0
1834 0
1835 0
1836 0
1837 0
1838 0
1839 0
1840 0
1841 0
1842 0
1843 0
1844 0
1845 0
1846 0
1847 0
1848 0
1849 0
1850 0
1851 0
1852 0
1853 0
1854 0
1855 0
1856 0
1857 0
1858 0
1859 0
1860 0
1861 0
1862 0
1863 0
1864 0
1865 0
1866 0
1867 3
-68.4045 5.39079e-08 2.90727e-09
1 0 -67.2467 -101.269 5.23661e-08 75.2337 -52.6337 104.766 127.366
Tx-Rx 
-25.306 -24.0135 6
-34.5162 -11.9524 2
2 1 -74.3626 53.5972 6.0099e-08 77.1687 -135.119 102.831 136.871
Tx-R-Rx 
-25.306 -24.0135 6
-36.2928 -13.7217 2.57109
-34.5162 -11.9524 2
3 1 -77.1741 -132.07 5.72418e-08 117.797 -52.6337 117.797 127.366
Tx-R-Rx 
-25.306 -24.0135 6
-32.2136 -14.9677 0
-34.5162 -11.9524 2
1868 4
-67.0075 5.03379e-08 5.64172e-09
1 0 -66.4812 64.6642 4.79487e-08 73.8378 -60.9107 106.162 119.089
Tx-Rx 
-25.306 -24.0135 6
-32.0162 -11.9524 2
2 1 -75.6431 4.35975 6.61377e-08 78.3575 -140.332 101.643 142.084
Tx-R-Rx 
-25.306 -24.0135 6
-36.266 -15.4766 3.13755
-32.0162 -11.9524 2
3 1 -75.8056 -117.143 5.32306e-08 120.098 -60.9107 120.098 119.089
Tx-R-Rx 
-25.306 -24.0135 6
-30.3386 -14.9677 0
-32.0162 -11.9524 2
4 2 -88.1265 90.0425 7.00615e-08 112.396 -140.332 112.396 142.084
Tx-R-R-Rx 
-25.306 -24.0135 6
-36.266 -15.4766 0.275099
-35.7521 -15.0504 0
-32.0162 -11.9524 2
1869 4
-68.0562 4.72032e-08 7.1784e-09
1 0 -65.8653 -120.068 4.46667e-08 72.6138 -70.7574 107.386 109.243
Tx-Rx 
-25.306 -24.0135 6
-29.5162 -11.9524 2
2 1 -74.7899 -17.1442 5.02945e-08 122.056 -70.7574 122.056 109.243
Tx-R-Rx 
-25.306 -24.0135 6
-28.4636 -14.9677 0
-29.5162 -11.9524 2
3 1 -76.8169 98.836 7.26338e-08 79.4114 -144.61 100.589 146.361
Tx-R-Rx 
-25.306 -24.0135 6
-36.2467 -16.7339 3.54338
-29.5162 -11.9524 2
4 2 -90.5879 -117.182 7.62239e-08 110.5 -144.61 110.5 146.361
Tx-R-R-Rx 
-25.306 -24.0135 6
-36.2467 -16.7339 1.08677
-33.8771 -15.0504 0
-29.5162 -11.9524 2
1870 2
-65.8555 4.28498e-08 1.6417e-09
1 0 -65.4909 94.2709 4.27823e-08 71.8219 -81.9297 108.178 98.0703
Tx-Rx 
-25.306 -24.0135 6
-27.0162 -11.9524 2
2 2 -93.2087 -87.4666 8.27691e-08 108.815 -148.145 108.815 149.897
Tx-R-R-Rx 
-25.306 -24.0135 6
-36.2323 -17.6789 1.69686
-32.0021 -15.0504 0
-27.0162 -11.9524 2
1871 2
-65.6863 4.25227e-08 1.38624e-09
1 0 -65.4297 112.834 4.24819e-08 71.6888 -93.7467 108.311 86.2533
Tx-Rx 
-25.306 -24.0135 6
-24.5162 -11.9524 2
2 2 -96.0516 -75.6511 8.96133e-08 107.33 -151.095 107.33 152.847
Tx-R-R-Rx 
-25.306 -24.0135 6
-36.221 -18.4152 2.17218
-30.1271 -15.0504 0
-24.5162 -11.9524 2
1872 0
1873 0
1874 0
1875 0
1876 0
1877 0
1878 0
1879 0
1880 0
1881 0
1882 0
1883 0
1884 0
1885 0
1886 0
1887 0
1888 0
1889 0
1890 0
1891 0
1892 0
1893 0
1894 0
1895 0
1896 0
1897 0
1898 0
1899 0
1900 0
1901 0
1902 0
1903 0
1904 0
1905 0
1906 0
1907 0
1908 0
1909 0
1910 0
1911 0
1912 0
1913 0
1914 0
1915 0
1916 0
1917 0
1918 0
1919 0
1920 0
1921 0
1922 0
1923 0
1924 0
1925 0
1926 0
1927 0
1928 0
1929 0
1930 0
1931 0
1932 0
1933 0
1934 0
1935 0
1936 0
1937 0
1938 0
1939 0
1940 0
1941 0
1942 0
1943 0
1944 0
1945 0
1946 0
1947 3
-69.0202 6.05285e-08 2.77601e-09
1 0 -68.2855 156.332 5.90188e-08 76.9297 -57.6859 103.07 122.314
Tx-Rx 
-25.306 -24.0135 6
-34.5162 -9.45239 2
2 1 -74.6823 32.3755 6.6116e-08 78.3536 -129.882 101.646 131.633
Tx-R-Rx 
-25.306 -24.0135 6
-36.325 -11.6171 2.58143
-34.5162 -9.45239 2
3 1 -79.2492 46.3904 6.33848e-08 114.906 -57.6859 114.906 122.314
Tx-R-Rx 
-25.306 -24.0135 6
-32.2136 -13.0927 0
-34.5162 -9.45239 2
1948 4
-66.7613 5.76016e-08 5.56277e-09
1 0 -67.6945 7.41456 5.5137e-08 75.9914 -65.2584 104.009 114.742
Tx-Rx 
-25.306 -24.0135 6
-32.0162 -9.45239 2
2 1 -75.8606 -99.9045 7.16494e-08 79.2642 -135.099 100.736 136.851
Tx-R-Rx 
-25.306 -24.0135 6
-36.2929 -13.7144 3.14476
-32.0162 -9.45239 2
3 1 -78.0354 -99.7323 5.97872e-08 116.518 -65.2584 116.518 114.742
Tx-R-Rx 
-25.306 -24.0135 6
-30.3386 -13.0927 0
-32.0162 -9.45239 2
4 2 -89.3909 -14.8637 7.52864e-08 110.767 -135.099 110.767 136.851
Tx-R-R-Rx 
-25.306 -24.0135 6
-36.2929 -13.7144 0.289522
-35.7521 -13.1754 0
-32.0162 -9.45239 2
1949 4
-65.2955 5.5039e-08 7.32932e-09
1 0 -67.237 -28.0678 5.2308e-08 75.217 -73.8734 104.783 106.127
Tx-Rx 
-25.306 -24.0135 6
-29.5162 -9.45239 2
2 1 -76.9461 -146.416 7.76859e-08 80.1072 -139.512 99.8928 141.263
Tx-R-Rx 
-25.306 -24.0135 6
-36.2699 -15.2183 3.5487
-29.5162 -9.45239 2
3 1 -77.156 -65.0992 5.71887e-08 117.825 -73.8734 117.825 106.127
Tx-R-Rx 
-25.306 -24.0135 6
-28.4636 -13.0927 0
-29.5162 -9.45239 2
4 2 -91.8279 -82.9814 8.10526e-08 109.229 -139.512 109.229 141.263
Tx-R-R-Rx 
-25.306 -24.0135 6
-36.2699 -15.2183 1.0974
-33.8771 -13.1754 0
-29.5162 -9.45239 2
1950 2
-67.2732 5.07733e-08 1.53893e-09
1 0 -66.9673 -172.527 5.07084e-08 74.7395 -83.3014 105.261 96.6986
Tx-Rx 
-25.306 -24.0135 6
-27.0162 -9.45239 2
2 2 -94.4599 41.697 8.72363e-08 107.818 -143.251 107.818 145.003
Tx-R-R-Rx 
-25.306 -24.0135 6
-36.2526 -16.3494 1.70502
-32.0021 -13.1754 0
-27.0162 -9.45239 2
1951 2
-66.7358 5.04942e-08 1.30083e-09
1 0 -66.9238 146.54 5.04551e-08 74.661 -93.1048 105.339 86.8952
Tx-Rx 
-25.306 -24.0135 6
-24.5162 -9.45239 2
2 2 -97.3612 102.625 9.37549e-08 106.542 -146.434 106.542 148.186
Tx-R-R-Rx 
-25.306 -24.0135 6
-36.2391 -17.231 2.17863
-30.1271 -13.1754 0
-24.5162 -9.45239 2
1952 0
1953 0
1954 0
1955 0
1956 0
1957 0
1958 0
1959 0
1960 0
1961 0
1962 0
1963 0
1964 0
1965 0
1966 0
1967 0
1968 0
1969 0
1970 0
1971 0
1972 0
1973 0
1974 0
1975 0
1976 0
1977 0
1978 0
1979 0
1980 0
1981 0
1982 0
1983 0
1984 0
1985 0
1986 0
1987 0
1988 0
1989 0
1990 0
1991 0
1992 0
1993 0
1994 0
1995 0
1996 0
1997 0
1998 0
1999 0
2000 0
2001 0
2002 0
2003 0
2004 0
2005 0
2006 0
2007 0
2008 0
2009 0
2010 0
2011 0
2012 0
2013 0
2014 0
2015 0
2016 0
2017 0
2018 0
2019 0
2020 0
2021 0
2022 0
2023 0
2024 0
2025 0
2026 0
2027 3
-72.9024 6.75398e-08 2.65254e-09
1 0 -69.264 -70.5878 6.6056e-08 78.3429 -61.6383 101.657 118.362
Tx-Rx 
-25.306 -24.0135 6
-34.5162 -6.95239 2
2 1 -75.0385 149.704 7.25943e-08 79.4056 -125.583 100.594 127.335
Tx-R-Rx 
-25.306 -24.0135 6
-36.3569 -9.52519 2.59172
-34.5162 -6.95239 2
3 1 -81.4866 9.13213 6.99844e-08 112.422 -61.6383 112.422 118.362
Tx-R-Rx 
-25.306 -24.0135 6
-32.2136 -11.2177 0
-34.5162 -6.95239 2
2028 4
-68.3834 6.51318e-08 5.4221e-09
1 0 -68.7989 -51.1639 6.2612e-08 77.6919 -68.5302 102.308 111.47
Tx-Rx 
-25.306 -24.0135 6
-32.0162 -6.95239 2
2 1 -76.1416 -122.533 7.76675e-08 80.1048 -130.67 99.8952 132.422
Tx-R-Rx 
-25.306 -24.0135 6
-36.3197 -11.9611 3.15194
-32.0162 -6.95239 2
3 1 -80.3841 133.684 6.67434e-08 113.575 -68.5302 113.575 111.47
Tx-R-Rx 
-25.306 -24.0135 6
-30.3386 -11.2177 0
-32.0162 -6.95239 2
4 2 -90.9682 -60.2488 8.10349e-08 109.233 -130.67 109.233 132.422
Tx-R-R-Rx 
-25.306 -24.0135 6
-36.3197 -11.9611 0.303873
-35.7521 -11.3004 0
-32.0162 -6.95239 2
2029 4
-69.7508 6.30445e-08 7.34451e-09
1 0 -68.4483 -171.03 6.01357e-08 77.1766 -76.138 102.823 103.862
Tx-Rx 
-25.306 -24.0135 6
-29.5162 -6.95239 2
2 1 -77.1484 19.4068 8.32689e-08 80.7765 -135.085 99.2235 136.836
Tx-R-Rx 
-25.306 -24.0135 6
-36.293 -13.7092 3.55399
-29.5162 -6.95239 2
3 1 -79.6006 174.091 6.44261e-08 114.477 -76.138 114.477 103.862
Tx-R-Rx 
-25.306 -24.0135 6
-28.4636 -11.2177 0
-29.5162 -6.95239 2
4 2 -93.4045 -6.50789 8.64184e-08 107.992 -135.085 107.992 136.836
Tx-R-R-Rx 
-25.306 -24.0135 6
-36.293 -13.7092 1.10798
-33.8771 -11.3004 0
-29.5162 -6.95239 2
2030 3
-71.018 6.16651e-08 8.98404e-09
1 0 -68.2458 135.473 5.87496e-08 76.8688 -84.2759 103.131 95.7241
Tx-Rx 
-25.306 -24.0135 6
-27.0162 -6.95239 2
2 1 -78.0891 -19.191 8.92993e-08 81.4042 -138.909 98.5958 140.661
Tx-R-Rx 
-25.306 -24.0135 6
-36.2729 -15.0248 3.85657
-27.0162 -6.95239 2
3 2 -96.0675 -150.288 9.22431e-08 106.821 -138.909 106.821 140.661
Tx-R-R-Rx 
-25.306 -24.0135 6
-36.2729 -15.0248 1.71314
-32.0021 -11.3004 0
-27.0162 -6.95239 2
2031 2
-68.1863 5.85642e-08 1.14639e-09
1 0 -68.2134 50.6922 5.85312e-08 76.8189 -92.6505 103.181 87.3495
Tx-Rx 
-25.306 -24.0135 6
-24.5162 -6.95239 2
2 2 -99.039 -33.8811 9.84307e-08 105.735 -142.227 105.735 143.979
Tx-R-R-Rx 
-25.306 -24.0135 6
-36.2572 -16.0508 2.18506
-30.1271 -11.3004 0
-24.5162 -6.95239 2
2032 0
2033 0
2034 0
2035 0
2036 0
2037 0
2038 0
2039 0
2040 0
2041 0
2042 0
2043 0
2044 0
2045 0
2046 0
2047 0
2048 0
2049 0
2050 0
2051 0
2052 0
2053 0
2054 0
2055 0
2056 0
2057 0
2058 0
2059 0
2060 0
2061 0
2062 0
2063 0
2064 0
2065 0
2066 0
2067 0
2068 0
2069 0
2070 0
2071 0
2072 0
2073 0
2074 0
2075 0
2076 0
2077 0
2078 0
2079 0
2080 0
2081 0
2082 0
2083 0
2084 0
2085 0
2086 0
2087 0
2088 0
2089 0
2090 0
2091 0
2092 0
2093 0
2094 0
2095 0
2096 0
2097 0
2098 0
2099 0
2100 0
2101 0
2102 0
2103 0
2104 0
2105 0
2106 0
2107 3
-72.377 7.4832e-08 2.53792e-09
1 0 -70.1758 77.29 7.33672e-08 79.5185 -64.787 100.482 115.213
Tx-Rx 
-25.306 -24.0135 6
-34.5162 -4.45239 2
2 1 -75.4071 -172.129 7.94212e-08 80.3254 -122.028 99.6746 123.78
Tx-R-Rx 
-25.306 -24.0135 6
-36.3887 -7.44583 2.60193
-34.5162 -4.45239 2
3 1 -83.8966 -96.0841 7.69231e-08 110.305 -64.787 110.305 115.213
Tx-R-Rx 
-25.306 -24.0135 6
-32.2136 -9.34267 0
-34.5162 -4.45239 2
2108 4
-66.3497 7.28429e-08 5.24716e-09
1 0 -69.8027 4.14406 7.02824e-08 79.0528 -71.0662 100.947 108.934
Tx-Rx 
-25.306 -24.0135 6
-32.0162 -4.45239 2
2 1 -76.4489 73.4528 8.40834e-08 80.8666 -126.915 99.1334 128.667
Tx-R-Rx 
-25.306 -24.0135 6
-36.3464 -10.2165 3.15908
-32.0162 -4.45239 2
3 1 -82.8661 4.87694 7.39867e-08 111.149 -71.0662 111.149 108.934
Tx-R-Rx 
-25.306 -24.0135 6
-30.3386 -9.34267 0
-32.0162 -4.45239 2
4 2 -92.8675 83.9576 8.72035e-08 107.825 -126.915 107.825 128.667
Tx-R-R-Rx 
-25.306 -24.0135 6
-36.3464 -10.2165 0.318152
-35.7521 -9.42543 0
-32.0162 -4.45239 2
2109 4
-71.9034 7.11448e-08 7.2571e-09
1 0 -69.5268 -107.953 6.80857e-08 78.6951 -77.8534 101.305 102.147
Tx-Rx 
-25.306 -24.0135 6
-29.5162 -4.45239 2
2 1 -77.3966 1.60481 8.92833e-08 81.4027 -131.248 98.5973 133
Tx-R-Rx 
-25.306 -24.0135 6
-36.3159 -12.2066 3.55926
-29.5162 -4.45239 2
3 1 -82.1449 110.777 7.19032e-08 111.792 -77.8534 111.792 102.147
Tx-R-Rx 
-25.306 -24.0135 6
-28.4636 -9.34267 0
-29.5162 -4.45239 2
4 2 -95.3389 -130.257 9.22275e-08 106.824 -131.248 106.824 133
Tx-R-R-Rx 
-25.306 -24.0135 6
-36.3159 -12.2066 1.11851
-33.8771 -9.42543 0
-29.5162 -4.45239 2
2110 3
-69.2515 7.00969e-08 8.96541e-09
1 0 -69.3696 -9.35875 6.68646e-08 78.4858 -85.0035 101.514 94.9965
Tx-Rx 
-25.306 -24.0135 6
-27.0162 -4.45239 2
2 1 -78.2755 83.5413 9.49323e-08 81.9178 -135.074 98.0822 136.826
Tx-R-Rx 
-25.306 -24.0135 6
-36.293 -13.7053 3.86062
-27.0162 -4.45239 2
3 2 -98.0678 160.153 9.77065e-08 105.855 -135.074 105.855 136.826
Tx-R-R-Rx 
-25.306 -24.0135 6
-36.293 -13.7053 1.72123
-32.0021 -9.42543 0
-27.0162 -4.45239 2
2111 3
-72.7675 6.99696e-08 1.011e-08
1 0 -69.3447 -127.644 6.66727e-08 78.4522 -92.3122 101.548 87.6878
Tx-Rx 
-25.306 -24.0135 6
-24.5162 -4.45239 2
2 1 -79.1049 54.3293 1.00955e-07 82.4029 -138.449 97.5971 140.201
Tx-R-Rx 
-25.306 -24.0135 6
-36.2752 -14.8746 4.09574
-24.5162 -4.45239 2
3 2 -101.108 -35.4988 1.03568e-07 104.936 -138.449 104.936 140.201
Tx-R-R-Rx 
-25.306 -24.0135 6
-36.2752 -14.8746 2.19147
-30.1271 -9.42543 0
-24.5162 -4.45239 2
2112 0
2113 0
2114 0
2115 0
2116 0
2117 0
2118 0
2119 0
2120 0
2121 0
2122 0
2123 0
2124 0
2125 0
2126 0
2127 0
2128 0
2129 0
2130 0
2131 0
2132 0
2133 0
2134 0
2135 0
2136 0
2137 0
2138 0
2139 0
2140 0
2141 0
2142 0
2143 0
2144 0
2145 0
2146 0
2147 0
2148 0
2149 0
2150 0
2151 0
2152 0
2153 0
2154 0
2155 0
2156 0
2157 0
2158 0
2159 0
2160 0
2161 0
2162 0
2163 0
2164 0
2165 0
2166 0
2167 0
2168 0
2169 0
2170 0
2171 0
2172 0
2173 0
2174 0
2175 0
2176 0
2177 0
2178 0
2179 0
2180 0
2181 0
2182 0
2183 0
2184 0
2185 0
2186 0
2187 3
-69.6418 8.23278e-08 2.4306e-09
1 0 -71.0224 -26.461 8.08781e-08 80.5013 -67.3402 99.4987 112.66
Tx-Rx 
-25.306 -24.0135 6
-34.5162 -1.95239 2
2 1 -75.7818 -109.143 8.6514e-08 81.1253 -119.062 98.8747 120.813
Tx-R-Rx 
-25.306 -24.0135 6
-36.4203 -5.37891 2.61209
-34.5162 -1.95239 2
3 1 -86.5198 -163.923 8.41171e-08 108.502 -67.3402 108.502 112.66
Tx-R-Rx 
-25.306 -24.0135 6
-32.2136 -7.46767 0
-34.5162 -1.95239 2
2188 4
-67.1199 8.06807e-08 5.05601e-09
1 0 -70.7177 -114.165 7.80906e-08 80.159 -73.0822 99.841 106.918
Tx-Rx 
-25.306 -24.0135 6
-32.0162 -1.95239 2
2 1 -76.7644 -125.663 9.08129e-08 81.5486 -123.718 98.4514 125.469
Tx-R-Rx 
-25.306 -24.0135 6
-36.3729 -8.48071 3.16618
-32.0162 -1.95239 2
3 1 -85.5244 -30.0092 8.14405e-08 109.133 -73.0822 109.133 106.918
Tx-R-Rx 
-25.306 -24.0135 6
-30.3386 -7.46767 0
-32.0162 -1.95239 2
4 2 -95.1314 161.58 9.37091e-08 106.55 -123.718 106.55 125.469
Tx-R-R-Rx 
-25.306 -24.0135 6
-36.3729 -8.48071 0.332359
-35.7521 -7.55043 0
-32.0162 -1.95239 2
2189 4
-67.3519 7.93018e-08 7.10349e-09
1 0 -70.4957 -150.61 7.61195e-08 79.9015 -79.1955 100.099 100.804
Tx-Rx 
-25.306 -24.0135 6
-29.5162 -1.95239 2
2 1 -77.6654 -97.3261 9.56475e-08 81.9786 -127.919 98.0214 129.671
Tx-R-Rx 
-25.306 -24.0135 6
-36.3388 -10.7105 3.5645
-29.5162 -1.95239 2
3 1 -84.8369 -170.205 7.95525e-08 109.606 -79.1955 109.606 100.804
Tx-R-Rx 
-25.306 -24.0135 6
-28.4636 -7.46767 0
-29.5162 -1.95239 2
4 2 -97.6706 3.66337 9.84016e-08 105.74 -127.919 105.74 129.671
Tx-R-R-Rx 
-25.306 -24.0135 6
-36.3388 -10.7105 1.129
-33.8771 -7.55043 0
-29.5162 -1.95239 2
2190 3
-69.0363 7.85074e-08 8.83685e-09
1 0 -70.3703 143.094 7.50293e-08 79.7532 -85.5673 100.247 94.4327
Tx-Rx 
-25.306 -24.0135 6
-27.0162 -1.95239 2
2 1 -78.4966 72.7356 1.00941e-07 82.4018 -131.69 97.5982 133.442
Tx-R-Rx 
-25.306 -24.0135 6
-36.3131 -12.3908 3.86465
-27.0162 -1.95239 2
3 2 -100.474 -17.61 1.03554e-07 104.938 -131.69 104.938 133.442
Tx-R-R-Rx 
-25.306 -24.0135 6
-36.3131 -12.3908 1.72929
-32.0021 -7.55043 0
-27.0162 -1.95239 2
2191 3
-71.2096 7.84779e-08 1.00953e-08
1 0 -70.3505 -1.55879 7.48584e-08 79.7295 -92.0504 100.27 87.9496
Tx-Rx 
-25.306 -24.0135 6
-24.5162 -1.95239 2
2 1 -79.2765 110.605 1.06625e-07 82.8091 -135.066 97.1909 136.818
Tx-R-Rx 
-25.306 -24.0135 6
-36.2931 -13.7023 4.09893
-24.5162 -1.95239 2
3 2 -103.445 177.316 1.09102e-07 104.162 -135.066 104.162 136.818
Tx-R-R-Rx 
-25.306 -24.0135 6
-36.2931 -13.7023 2.19786
-30.1271 -7.55043 0
-24.5162 -1.95239 2
2192 0
2193 0
2194 0
2195 0
2196 0
2197 0
2198 0
2199 0
2200 0
2201 0
2202 0
2203 0
2204 0
2205 0
2206 0
2207 0
2208 0
2209 0
2210 0
2211 0
2212 0
2213 0
2214 0
2215 0
2216 0
2217 0
2218 0
2219 0
2220 0
2221 0
2222 0
2223 0
2224 0
2225 0
2226 0
2227 0
2228 0
2229 0
2230 0
2231 0
2232 0
2233 0
2234 0
2235 0
2236 0
2237 0
2238 0
2239 0
2240 0
2241 0
2242 0
2243 0
2244 0
2245 0
2246 0
2247 0
2248 0
2249 0
2250 0
2251 0
2252 0
2253 0
2254 0
2255 0
2256 0
2257 0
2258 0
2259 0
2260 0
2261 0
2262 0
2263 0
2264 0
2265 0
2266 0
2267 3
-68.4647 8.99737e-08 2.3294e-09
1 0 -71.8083 42.1798 8.8538e-08 81.3297 -69.4444 98.6703 110.556
Tx-Rx 
-25.306 -24.0135 6
-34.5162 0.547612 2
2 1 -76.1606 54.6839 9.38126e-08 81.8207 -116.561 98.1793 118.312
Tx-R-Rx 
-25.306 -24.0135 6
-36.4518 -3.32431 2.62219
-34.5162 0.547612 2
3 1 -89.428 -119.268 9.15062e-08 106.961 -69.4444 106.961 110.556
Tx-R-Rx 
-25.306 -24.0135 6
-32.2136 -5.59267 0
-34.5162 0.547612 2
2268 4
-69.7588 8.86083e-08 4.8591e-09
1 0 -71.5556 1.18753 8.59991e-08 81.0717 -74.7195 98.9283 105.281
Tx-Rx 
-25.306 -24.0135 6
-32.0162 0.547612 2
2 1 -77.0825 81.7148 9.77911e-08 82.1556 -120.978 97.8444 122.73
Tx-R-Rx 
-25.306 -24.0135 6
-36.3993 -6.75356 3.17325
-32.0162 0.547612 2
3 1 -88.4322 95.0006 8.9052e-08 107.443 -74.7195 107.443 105.281
Tx-R-Rx 
-25.306 -24.0135 6
-30.3386 -5.59267 0
-32.0162 0.547612 2
4 2 -97.8192 -106.373 1.00486e-07 105.405 -120.978 105.405 122.73
Tx-R-R-Rx 
-25.306 -24.0135 6
-36.3993 -6.75356 0.346496
-35.7521 -5.67543 0
-32.0162 0.547612 2
2269 4
-68.4222 8.7494e-08 6.91038e-09
1 0 -71.3734 91.2562 8.42133e-08 80.8808 -80.2731 99.1192 99.7269
Tx-Rx 
-25.306 -24.0135 6
-29.5162 0.547612 2
2 1 -77.9409 164.961 1.02297e-07 82.5031 -125.022 97.4969 126.773
Tx-R-Rx 
-25.306 -24.0135 6
-36.3616 -9.22085 3.56972
-29.5162 0.547612 2
3 1 -87.7517 107.585 8.73287e-08 107.798 -80.2731 107.798 99.7269
Tx-R-Rx 
-25.306 -24.0135 6
-28.4636 -5.59267 0
-29.5162 0.547612 2
4 2 -100.407 114.254 1.04876e-07 104.746 -125.022 104.746 126.773
Tx-R-R-Rx 
-25.306 -24.0135 6
-36.3616 -9.22085 1.13945
-33.8771 -5.67543 0
-29.5162 0.547612 2
2270 3
-74.051 8.68965e-08 8.64435e-09
1 0 -71.2713 -108.713 8.32291e-08 80.772 -86.017 99.228 93.983
Tx-Rx 
-25.306 -24.0135 6
-27.0162 0.547612 2
2 1 -78.7345 27.9387 1.07262e-07 82.852 -128.702 97.148 130.454
Tx-R-Rx 
-25.306 -24.0135 6
-36.3332 -11.0812 3.86866
-27.0162 0.547612 2
3 2 -103.111 110.634 1.09725e-07 104.08 -128.702 104.08 130.454
Tx-R-R-Rx 
-25.306 -24.0135 6
-36.3332 -11.0812 1.73733
-32.0021 -5.67543 0
-27.0162 0.547612 2
2271 3
-68.6279 8.6954e-08 9.98054e-09
1 0 -71.2552 85.376 8.30751e-08 80.7548 -91.8419 99.2452 88.1581
Tx-Rx 
-25.306 -24.0135 6
-24.5162 0.547612 2
2 1 -79.4752 107.32 1.12628e-07 83.1942 -132.039 96.8058 133.791
Tx-R-Rx 
-25.306 -24.0135 6
-36.3109 -12.5339 4.10211
-24.5162 0.547612 2
3 2 -105.383 -46.4983 1.14976e-07 103.425 -132.039 103.425 133.791
Tx-R-R-Rx 
-25.306 -24.0135 6
-36.3109 -12.5339 2.20423
-30.1271 -5.67543 0
-24.5162 0.547612 2
2272 0
2273 0
2274 0
2275 0
2276 0
2277 0
2278 0
2279 0
2280 0
2281 0
2282 0
2283 0
2284 0
2285 0
2286 0
2287 0
2288 0
2289 0
2290 0
2291 0
2292 0
2293 0
2294 0
2295 0
2296 0
2297 0
2298 0
2299 0
2300 0
2301 0
2302 0
2303 0
2304 0
2305 0
2306 0
2307 0
2308 0
2309 0
2310 0
2311 0
2312 0
2313 0
2314 0
2315 0
2316 0
2317 0
2318 0
2319 0
2320 0
2321 0
2322 0
2323 0
2324 0
2325 0
2326 0
2327 0
2328 0
2329 0
2330 0
2331 0
2332 0
2333 0
2334 0
2335 0
2336 0
2337 0
2338 0
2339 0
2340 0
2341 0
2342 0
2343 0
2344 0
2345 0
2346 0
2347 3
-69.1474 9.77325e-08 2.23383e-09
1 0 -72.5393 -32.0333 9.63111e-08 82.0343 -71.2041 97.9657 108.796
Tx-Rx 
-25.306 -24.0135 6
-34.5162 3.04761 2
2 1 -76.5407 15.3716 1.01272e-07 82.4268 -114.431 97.5732 116.183
Tx-R-Rx 
-25.306 -24.0135 6
-36.483 -1.28191 2.63223
-34.5162 3.04761 2
3 1 -92.7146 91.3407 9.90467e-08 105.635 -71.2041 105.635 108.796
Tx-R-Rx 
-25.306 -24.0135 6
-32.2136 -3.71767 0
-34.5162 3.04761 2
2348 4
-67.9141 9.66004e-08 4.66291e-09
1 0 -72.3267 22.0919 9.39825e-08 81.8356 -76.0736 98.1644 103.926
Tx-Rx 
-25.306 -24.0135 6
-32.0162 3.04761 2
2 1 -77.4022 38.1239 1.04969e-07 82.695 -118.614 97.305 120.366
Tx-R-Rx 
-25.306 -24.0135 6
-36.4256 -5.035 3.18028
-32.0162 3.04761 2
3 1 -91.69 65.4877 9.67839e-08 106.01 -76.0736 106.01 103.926
Tx-R-Rx 
-25.306 -24.0135 6
-30.3386 -3.71767 0
-32.0162 3.04761 2
4 2 -100.877 61.5592 1.07484e-07 104.38 -118.614 104.38 120.366
Tx-R-R-Rx 
-25.306 -24.0135 6
-36.4256 -5.035 0.360562
-35.7521 -3.80043 0
-32.0162 3.04761 2
2349 4
-74.0123 9.57073e-08 6.69512e-09
1 0 -72.1746 -82.5122 9.23512e-08 81.6903 -81.1568 98.3097 98.8432
Tx-Rx 
-25.306 -24.0135 6
-29.5162 3.04761 2
2 1 -78.2178 134.043 1.09178e-07 82.9781 -122.489 97.0219 124.241
Tx-R-Rx 
-25.306 -24.0135 6
-36.3843 -7.73754 3.57492
-29.5162 3.04761 2
3 1 -90.993 -97.7992 9.52006e-08 106.284 -81.1568 106.284 98.8432
Tx-R-Rx 
-25.306 -24.0135 6
-28.4636 -3.71767 0
-29.5162 3.04761 2
4 2 -103.215 -96.8353 1.11599e-07 103.839 -122.489 103.839 124.241
Tx-R-R-Rx 
-25.306 -24.0135 6
-36.3843 -7.73754 1.14985
-33.8771 -3.80043 0
-29.5162 3.04761 2
2350 3
-69.5153 9.52679e-08 8.41786e-09
1 0 -72.0899 -32.8764 9.14547e-08 81.6083 -86.3839 98.3917 93.6161
Tx-Rx 
-25.306 -24.0135 6
-27.0162 3.04761 2
2 1 -78.9786 14.7907 1.13844e-07 83.2673 -126.058 96.7327 127.809
Tx-R-Rx 
-25.306 -24.0135 6
-36.3531 -9.77647 3.87266
-27.0162 3.04761 2
3 2 -105.036 -113.705 1.16168e-07 103.284 -126.058 103.284 127.809
Tx-R-R-Rx 
-25.306 -24.0135 6
-36.3531 -9.77647 1.74533
-32.0021 -3.80043 0
-27.0162 3.04761 2
2351 3
-69.3289 9.5401e-08 9.80349e-09
1 0 -72.0766 143.728 9.13145e-08 81.5953 -91.6718 98.4047 88.3282
Tx-Rx 
-25.306 -24.0135 6
-24.5162 3.04761 2
2 1 -79.6882 107.988 1.18913e-07 83.5555 -129.329 96.4445 131.081
Tx-R-Rx 
-25.306 -24.0135 6
-36.3287 -11.3695 4.10529
-24.5162 3.04761 2
3 2 -105.577 78.5256 1.21139e-07 102.73 -129.329 102.73 131.081
Tx-R-R-Rx 
-25.306 -24.0135 6
-36.3287 -11.3695 2.21057
-30.1271 -3.80043 0
-24.5162 3.04761 2
2352 0
2353 0
2354 0
2355 0
2356 0
2357 0
2358 0
2359 0
2360 0
2361 0
2362 0
2363 0
2364 0
2365 0
2366 0
2367 0
2368 0
2369 0
2370 0
2371 0
2372 0
2373 0
2374 0
2375 0
2376 0
2377 0
2378 0
2379 0
2380 0
2381 0
2382 0
2383 0
2384 0
2385 0
2386 0
2387 0
2388 0
2389 0
2390 0
2391 0
2392 0
2393 0
2394 0
2395 0
2396 0
2397 0
2398 0
2399 0
2400 0
2401 0
2402 0
2403 0
2404 0
2405 0
2406 0
2407 0
2408 0
2409 0
2410 0
2411 0
2412 0
2413 0
2414 0
2415 0
2416 0
2417 0
2418 0
2419 0
2420 0
2421 0
2422 0
2423 0
2424 0
2425 0
2426 0
2427 3
-68.8121 1.05578e-07 2.1438e-09
1 0 -73.2208 142.875 1.04172e-07 82.6389 -72.6949 97.3611 107.305
Tx-Rx 
-25.306 -24.0135 6
-34.5162 5.54761 2
2 1 -76.9195 174.669 1.0886e-07 82.9575 -112.601 97.0425 114.353
Tx-R-Rx 
-25.306 -24.0135 6
-36.514 0.748379 2.64221
-34.5162 5.54761 2
3 1 -96.3753 144.815 1.06707e-07 104.487 -72.6949 104.487 107.305
Tx-R-Rx 
-25.306 -24.0135 6
-32.2136 -1.84267 0
-34.5162 5.54761 2
2428 4
-79.2504 1.0464e-07 4.47175e-09
1 0 -73.0398 -29.2823 1.02023e-07 82.4829 -77.211 97.5171 102.789
Tx-Rx 
-25.306 -24.0135 6
-32.0162 5.54761 2
2 1 -77.7227 151.683 1.12307e-07 83.1747 -116.561 96.8253 118.313
Tx-R-Rx 
-25.306 -24.0135 6
-36.4517 -3.32498 3.18728
-32.0162 5.54761 2
3 1 -95.3578 -87.8335 1.0461e-07 104.784 -77.211 104.784 102.789
Tx-R-Rx 
-25.306 -24.0135 6
-30.3386 -1.84267 0
-32.0162 5.54761 2
4 2 -103.513 -8.98776 1.14662e-07 103.462 -116.561 103.462 118.313
Tx-R-R-Rx 
-25.306 -24.0135 6
-36.4517 -3.32498 0.374558
-35.7521 -1.92543 0
-32.0162 5.54761 2
2429 4
-78.8309 1.03933e-07 6.46907e-09
1 0 -72.9111 61.5962 1.00523e-07 82.37 -81.8943 97.63 98.1057
Tx-Rx 
-25.306 -24.0135 6
-29.5162 5.54761 2
2 1 -78.4949 -137.993 1.16251e-07 83.4073 -120.266 96.5927 122.018
Tx-R-Rx 
-25.306 -24.0135 6
-36.4069 -6.26057 3.5801
-29.5162 5.54761 2
3 1 -94.6495 -41.2954 1.03146e-07 104.999 -81.8943 104.999 98.1057
Tx-R-Rx 
-25.306 -24.0135 6
-28.4636 -1.84267 0
-29.5162 5.54761 2
4 2 -104.625 141.608 1.18527e-07 103.015 -120.266 103.015 122.018
Tx-R-R-Rx 
-25.306 -24.0135 6
-36.4069 -6.26057 1.16021
-33.8771 -1.92543 0
-29.5162 5.54761 2
2430 3
-70.7349 1.03625e-07 8.17517e-09
1 0 -72.8396 18.6133 9.96995e-08 82.3067 -86.689 97.6933 93.311
Tx-Rx 
-25.306 -24.0135 6
-27.0162 5.54761 2
2 1 -79.224 87.0541 1.20644e-07 83.6484 -123.711 96.3516 125.463
Tx-R-Rx 
-25.306 -24.0135 6
-36.373 -8.47667 3.87665
-27.0162 5.54761 2
3 2 -104.736 89.9325 1.22839e-07 102.551 -123.711 102.551 125.463
Tx-R-R-Rx 
-25.306 -24.0135 6
-36.373 -8.47667 1.7533
-32.0021 -1.92543 0
-27.0162 5.54761 2
2431 0
2432 0
2433 0
2434 0
2435 0
2436 0
2437 0
2438 0
2439 0
2440 0
2441 0
2442 0
2443 0
2444 0
2445 0
2446 0
2447 0
2448 0
2449 0
2450 0
2451 0
2452 0
2453 0
2454 0
2455 0
2456 0
2457 0
2458 0
2459 0
2460 0
2461 0
2462 0
2463 0
2464 0
2465 0
2466 0
2467 0
2468 0
2469 0
2470 0
2471 0
2472 0
2473 0
2474 0
2475 0
2476 0
2477 0
2478 0
2479 0
2480 0
2481 0
2482 0
2483 0
2484 0
2485 0
2486 0
2487 0
2488 0
2489 0
2490 0
2491 0
2492 0
2493 0
2494 0
2495 0
2496 0
2497 0
2498 0
2499 0
2500 0
2501 0
2502 0
2503 0
2504 0
2505 0
2506 0
2507 3
-69.8568 1.13492e-07 2.05929e-09
1 0 -73.8582 -129.773 1.12103e-07 83.1622 -73.9723 96.8378 106.028
Tx-Rx 
-25.306 -24.0135 6
-34.5162 8.04761 2
2 1 -77.2945 -155.913 1.16551e-07 83.4243 -111.015 96.5757 112.766
Tx-R-Rx 
-25.306 -24.0135 6
-36.5449 2.76667 2.65213
-34.5162 8.04761 2
3 1 -99.6026 65.1862 1.14462e-07 103.486 -73.9723 103.486 106.028
Tx-R-Rx 
-25.306 -24.0135 6
-32.2136 0.0323329 0
-34.5162 8.04761 2
2508 4
-75.8564 1.12716e-07 4.28844e-09
1 0 -73.7022 -137.101 1.10109e-07 83.0377 -78.179 96.9623 101.821
Tx-Rx 
-25.306 -24.0135 6
-32.0162 8.04761 2
2 1 -78.0432 99.6703 1.19777e-07 83.6022 -114.766 96.3978 116.517
Tx-R-Rx 
-25.306 -24.0135 6
-36.4778 -1.62342 3.19424
-32.0162 8.04761 2
3 1 -98.9544 13.6384 1.12509e-07 103.725 -78.179 103.725 101.821
Tx-R-Rx 
-25.306 -24.0135 6
-30.3386 0.0323329 0
-32.0162 8.04761 2
4 2 -103.723 86.4252 1.21987e-07 102.64 -114.766 102.64 116.517
Tx-R-R-Rx 
-25.306 -24.0135 6
-36.4778 -1.62342 0.388485
-35.7521 -0.0504331 0
-32.0162 8.04761 2
2509 4
-71.0993 1.12164e-07 6.23996e-09
1 0 -73.592 173.079 1.0872e-07 82.9483 -82.5189 97.0517 97.4811
Tx-Rx 
-25.306 -24.0135 6
-29.5162 8.04761 2
2 1 -78.7722 110.295 1.23483e-07 83.7949 -118.303 96.2051 120.055
Tx-R-Rx 
-25.306 -24.0135 6
-36.4293 -4.78988 3.58526
-29.5162 8.04761 2
3 1 -98.4151 -68.625 1.1115e-07 103.896 -82.5189 103.896 97.4811
Tx-R-Rx 
-25.306 -24.0135 6
-28.4636 0.0323329 0
-29.5162 8.04761 2
4 2 -103.491 165.497 1.25628e-07 102.268 -118.303 102.268 120.055
Tx-R-R-Rx 
-25.306 -24.0135 6
-36.4293 -4.78988 1.17052
-33.8771 -0.0504331 0
-29.5162 8.04761 2
2510 3
-74.7455 1.11969e-07 7.92662e-09
1 0 -73.531 51.3335 1.07959e-07 82.8984 -86.9467 97.1016 93.0533
Tx-Rx 
-25.306 -24.0135 6
-27.0162 8.04761 2
2 1 -79.469 -71.3641 1.27627e-07 83.9972 -121.62 96.0028 123.372
Tx-R-Rx 
-25.306 -24.0135 6
-36.3928 -7.18173 3.88062
-27.0162 8.04761 2
3 2 -102.871 58.7738 1.29704e-07 101.877 -121.62 101.877 123.372
Tx-R-R-Rx 
-25.306 -24.0135 6
-36.3928 -7.18173 1.76124
-32.0021 -0.0504331 0
-27.0162 8.04761 2
2511 0
2512 0
2513 0
2514 0
2515 0
2516 0
2517 0
2518 0
2519 0
2520 0
2521 0
2522 0
2523 0
2524 0
2525 0
2526 0
2527 0
2528 0
2529 0
2530 0
2531 0
2532 0
2533 0
2534 0
2535 0
2536 0
2537 0
2538 0
2539 0
2540 0
2541 0
2542 0
2543 0
2544 0
2545 0
2546 0
2547 0
2548 0
2549 0
2550 0
2551 0
2552 0
2553 0
2554 0
2555 0
2556 0
2557 0
2558 0
2559 0
2560 0
2561 0
2562 0
2563 0
2564 0
2565 0
2566 0
2567 0
2568 0
2569 0
2570 0
2571 0
2572 0
2573 0
2574 0
2575 0
2576 0
2577 0
2578 0
2579 0
2580 0
2581 0
2582 0
2583 0
2584 0
2585 0
2586 0
2587 3
-75.0446 1.21461e-07 1.98024e-09
1 0 -74.4559 -112.63 1.20089e-07 83.6189 -75.0781 96.3811 104.922
Tx-Rx 
-25.306 -24.0135 6
-34.5162 10.5476 2
2 1 -77.6635 127.724 1.24326e-07 83.8372 -109.628 96.1628 111.38
Tx-R-Rx 
-25.306 -24.0135 6
-36.5756 4.77308 2.66199
-34.5162 10.5476 2
3 1 -100.068 -120.042 1.22294e-07 102.608 -75.0781 102.608 104.922
Tx-R-Rx 
-25.306 -24.0135 6
-32.2136 1.90733 0
-34.5162 10.5476 2
2588 4
-79.3234 1.20821e-07 4.11464e-09
1 0 -74.3204 70.215 1.1823e-07 83.5181 -79.0125 96.4819 100.988
Tx-Rx 
-25.306 -24.0135 6
-32.0162 10.5476 2
2 1 -78.3623 -88.785 1.27355e-07 83.9843 -113.185 96.0157 114.936
Tx-R-Rx 
-25.306 -24.0135 6
-36.5036 0.0697378 3.20117
-32.0162 10.5476 2
3 1 -100.266 27.8575 1.20469e-07 102.802 -79.0125 102.802 100.988
Tx-R-Rx 
-25.306 -24.0135 6
-30.3386 1.90733 0
-32.0162 10.5476 2
4 2 -101.835 36.5234 1.29436e-07 101.902 -113.185 101.902 114.936
Tx-R-R-Rx 
-25.306 -24.0135 6
-36.5036 0.0697378 0.402343
-35.7521 1.82457 0
-32.0162 10.5476 2
2589 4
-71.7121 1.20399e-07 6.01321e-09
1 0 -74.2249 -101.203 1.16937e-07 83.4462 -83.0545 96.5538 96.9455
Tx-Rx 
-25.306 -24.0135 6
-29.5162 10.5476 2
2 1 -79.0494 -167.985 1.30846e-07 84.1454 -116.562 95.8546 118.314
Tx-R-Rx 
-25.306 -24.0135 6
-36.4517 -3.32546 3.59039
-29.5162 10.5476 2
3 1 -100.305 -168.27 1.19201e-07 102.941 -83.0545 102.941 96.9455
Tx-R-Rx 
-25.306 -24.0135 6
-28.4636 1.90733 0
-29.5162 10.5476 2
4 2 -101.4 19.0158 1.32873e-07 101.589 -116.562 101.589 118.314
Tx-R-R-Rx 
-25.306 -24.0135 6
-36.4517 -3.32546 1.18079
-33.8771 1.82457 0
-29.5162 10.5476 2
2590 3
-77.2796 1.20303e-07 7.67837e-09
1 0 -74.1722 69.2859 1.16231e-07 83.4061 -87.1672 96.5939 92.8328
Tx-Rx 
-25.306 -24.0135 6
-27.0162 10.5476 2
2 1 -79.7136 -64.5947 1.34764e-07 84.3162 -119.751 95.6838 121.503
Tx-R-Rx 
-25.306 -24.0135 6
-36.4125 -5.89163 3.88458
-27.0162 10.5476 2
3 2 -100.882 -170.475 1.36733e-07 101.258 -119.751 101.258 121.503
Tx-R-R-Rx 
-25.306 -24.0135 6
-36.4125 -5.89163 1.76915
-32.0021 1.82457 0
-27.0162 10.5476 2
2591 0
2592 0
2593 0
2594 0
2595 0
2596 0
2597 0
2598 0
2599 0
2600 0
2601 0
2602 0
2603 0
2604 0
2605 0
2606 0
2607 0
2608 0
2609 0
2610 0
2611 0
2612 0
2613 0
2614 0
2615 0
2616 0
2617 0
2618 0
2619 0
2620 0
2621 0
2622 0
2623 0
2624 0
2625 0
2626 0
2627 0
2628 0
2629 0
2630 0
2631 0
2632 0
2633 0
2634 0
2635 0
2636 0
2637 0
2638 0
2639 0
2640 0
2641 0
2642 0
2643 0
2644 0
2645 0
2646 0
2647 0
2648 0
2649 0
2650 0
2651 0
2652 0
2653 0
2654 0
2655 0
2656 0
2657 0
2658 0
2659 0
2660 0
2661 0
2662 0
2663 0
2664 0
2665 0
2666 0
2667 3
-75.707 1.29474e-07 1.90648e-09
1 0 -75.0183 -152.567 1.28121e-07 84.0204 -76.044 95.9796 103.956
Tx-Rx 
-25.306 -24.0135 6
-34.5162 13.0476 2
2 1 -78.0251 -35.7574 1.3217e-07 84.2043 -108.407 95.7957 110.159
Tx-R-Rx 
-25.306 -24.0135 6
-36.606 6.7677 2.67179
-34.5162 13.0476 2
3 1 -98.2419 -13.5916 1.3019e-07 101.832 -76.044 101.832 103.956
Tx-R-Rx 
-25.306 -24.0135 6
-32.2136 3.78233 0
-34.5162 13.0476 2
2668 4
-72.8477 1.28949e-07 3.95117e-09
1 0 -74.8994 -118.685 1.2638e-07 83.9377 -79.7374 96.0623 100.263
Tx-Rx 
-25.306 -24.0135 6
-32.0162 13.0476 2
2 1 -78.6787 -30.7153 1.35023e-07 84.3271 -111.784 95.6729 113.536
Tx-R-Rx 
-25.306 -24.0135 6
-36.5294 1.75455 3.20807
-32.0162 13.0476 2
3 1 -98.6916 -10.8858 1.28477e-07 101.992 -79.7374 101.992 100.263
Tx-R-Rx 
-25.306 -24.0135 6
-30.3386 3.78233 0
-32.0162 13.0476 2
4 2 -99.7591 -132.222 1.36988e-07 101.237 -111.784 101.237 113.536
Tx-R-R-Rx 
-25.306 -24.0135 6
-36.5294 1.75455 0.416133
-35.7521 3.69957 0
-32.0162 13.0476 2
2669 4
-81.8991 1.28635e-07 5.7925e-09
1 0 -74.816 -36.1754 1.25172e-07 83.879 -83.5189 96.121 96.4811
Tx-Rx 
-25.306 -24.0135 6
-29.5162 13.0476 2
2 1 -79.3261 133.764 1.38321e-07 84.4628 -115.009 95.5372 116.761
Tx-R-Rx 
-25.306 -24.0135 6
-36.474 -1.86724 3.59551
-29.5162 13.0476 2
3 1 -98.9987 49.7923 1.27288e-07 102.105 -83.5189 102.105 96.4811
Tx-R-Rx 
-25.306 -24.0135 6
-28.4636 3.78233 0
-29.5162 13.0476 2
4 2 -99.5001 86.6475 1.4024e-07 100.973 -115.009 100.973 116.761
Tx-R-R-Rx 
-25.306 -24.0135 6
-36.474 -1.86724 1.19101
-33.8771 3.69957 0
-29.5162 13.0476 2
2670 3
-71.9053 1.28627e-07 7.4343e-09
1 0 -74.77 75.4134 1.24512e-07 83.8464 -87.358 96.1536 92.642
Tx-Rx 
-25.306 -24.0135 6
-27.0162 13.0476 2
2 1 -79.9579 136.736 1.42033e-07 84.608 -118.074 95.392 119.826
Tx-R-Rx 
-25.306 -24.0135 6
-36.4321 -4.60633 3.88852
-27.0162 13.0476 2
3 2 -99.2044 148.562 1.43902e-07 100.69 -118.074 100.69 119.826
Tx-R-R-Rx 
-25.306 -24.0135 6
-36.4321 -4.60633 1.77703
-32.0021 3.69957 0
-27.0162 13.0476 2
2671 0
2672 0
2673 0
2674 0
2675 0
2676 0
2677 0
2678 0
2679 0
2680 0
2681 0
2682 0
2683 0
2684 0
2685 0
2686 0
2687 0
2688 0
2689 0
2690 0
2691 0
2692 0
2693 0
2694 0
2695 0
2696 0
2697 0
2698 0
2699 0
2700 0
2701 0
2702 0
2703 0
2704 0
2705 0
2706 0
2707 0
2708 0
2709 0
2710 0
2711 0
2712 0
2713 0
2714 0
2715 0
2716 0
2717 0
2718 0
2719 0
2720 0
2721 0
2722 0
2723 0
2724 0
2725 0
2726 0
2727 0
2728 0
2729 0
2730 0
2731 0
2732 0
2733 0
2734 0
2735 0
2736 0
2737 0
2738 0
2739 0
2740 0
2741 0
2742 0
2743 0
2744 0
2745 0
2746 0
2747 3
-70.9824 1.37524e-07 1.83779e-09
1 0 -75.5488 120.513 1.3619e-07 84.3759 -76.8945 95.6241 103.106
Tx-Rx 
-25.306 -24.0135 6
-34.5162 15.5476 2
2 1 -78.3785 88.2761 1.40072e-07 84.5322 -107.324 95.4678 109.076
Tx-R-Rx 
-25.306 -24.0135 6
-36.6364 8.75064 2.68153
-34.5162 15.5476 2
3 1 -96.3006 38.4574 1.38138e-07 101.142 -76.8945 101.142 103.106
Tx-R-Rx 
-25.306 -24.0135 6
-32.2136 5.65733 0
-34.5162 15.5476 2
2748 4
-73.2716 1.37096e-07 3.7982e-09
1 0 -75.4438 22.7804 1.34553e-07 84.3072 -80.3734 95.6928 99.6266
Tx-Rx 
-25.306 -24.0135 6
-32.0162 15.5476 2
2 1 -78.9912 -67.84 1.42767e-07 84.6358 -110.536 95.3642 112.288
Tx-R-Rx 
-25.306 -24.0135 6
-36.555 3.43108 3.21493
-32.0162 15.5476 2
3 1 -96.663 -86.6362 1.36525e-07 101.275 -80.3734 101.275 99.6266
Tx-R-Rx 
-25.306 -24.0135 6
-30.3386 5.65733 0
-32.0162 15.5476 2
4 2 -98.0546 -44.6254 1.44627e-07 100.636 -110.536 100.636 112.288
Tx-R-R-Rx 
-25.306 -24.0135 6
-36.555 3.43108 0.429855
-35.7521 5.57457 0
-32.0162 15.5476 2
2749 4
-71.9789 1.36872e-07 5.58019e-09
1 0 -75.3702 11.9927 1.33419e-07 84.2587 -83.9253 95.7413 96.0747
Tx-Rx 
-25.306 -24.0135 6
-29.5162 15.5476 2
2 1 -79.6015 -42.9441 1.4589e-07 84.7509 -113.618 95.2491 115.37
Tx-R-Rx 
-25.306 -24.0135 6
-36.4962 -0.415204 3.6006
-29.5162 15.5476 2
3 1 -96.9247 -116.647 1.35407e-07 101.37 -83.9253 101.37 96.0747
Tx-R-Rx 
-25.306 -24.0135 6
-28.4636 5.65733 0
-29.5162 15.5476 2
4 2 -97.9679 27.5851 1.4771e-07 100.412 -113.618 100.412 115.37
Tx-R-R-Rx 
-25.306 -24.0135 6
-36.4962 -0.415204 1.20119
-33.8771 5.57457 0
-29.5162 15.5476 2
2750 3
-77.7336 1.36942e-07 7.19691e-09
1 0 -75.3298 71.9281 1.328e-07 84.2318 -87.5247 95.7682 92.4753
Tx-Rx 
-25.306 -24.0135 6
-27.0162 15.5476 2
2 1 -80.2018 -163.228 1.49414e-07 84.875 -116.562 95.125 118.314
Tx-R-Rx 
-25.306 -24.0135 6
-36.4517 -3.32582 3.89244
-27.0162 15.5476 2
3 2 -97.8488 -41.3319 1.51192e-07 100.169 -116.562 100.169 118.314
Tx-R-R-Rx 
-25.306 -24.0135 6
-36.4517 -3.32582 1.78489
-32.0021 5.57457 0
-27.0162 15.5476 2
2751 0
2752 0
2753 0
2754 0
2755 0
2756 0
2757 0
2758 0
2759 0
2760 0
2761 0
2762 0
2763 0
2764 0
2765 0
2766 0
2767 0
2768 0
2769 0
2770 0
2771 0
2772 0
2773 0
2774 0
2775 0
2776 0
2777 0
2778 0
2779 0
2780 0
2781 0
2782 0
2783 0
2784 0
2785 0
2786 0
2787 0
2788 0
2789 0
2790 0
2791 0
2792 0
2793 0
2794 0
2795 0
2796 0
2797 0
2798 0
2799 0
2800 0
2801 0
2802 0
2803 0
2804 0
2805 0
2806 0
2807 0
2808 0
2809 0
2810 0
2811 0
2812 0
2813 0
2814 0
2815 0
2816 0
2817 0
2818 0
2819 0
2820 0
2821 0
2822 0
2823 0
2824 1
-90.4139 3.00541e-07 0
1 1 -90.4139 -144.405 3.00541e-07 87.4547 78.6079 92.5453 100.457
Tx-R-Rx 
-25.306 -24.0135 6
-37.3463 41.2243 3.05099
-42.0162 18.0476 2
2825 1
-90.4014 2.99007e-07 0
1 1 -90.4014 -11.2681 2.99007e-07 87.4416 80.1767 92.5584 98.8881
Tx-R-Rx 
-25.306 -24.0135 6
-35.5057 41.2093 3.05031
-39.5162 18.0476 2
2826 0
2827 3
-81.2629 1.45604e-07 1.77389e-09
1 0 -76.0506 -5.50668 1.4429e-07 84.6925 -77.6488 95.3075 102.351
Tx-Rx 
-25.306 -24.0135 6
-34.5162 18.0476 2
2 1 -78.7229 151.431 1.48022e-07 84.8267 -106.359 95.1733 108.111
Tx-R-Rx 
-25.306 -24.0135 6
-36.6665 10.722 2.69122
-34.5162 18.0476 2
3 1 -94.7687 40.9884 1.4613e-07 100.525 -77.6488 100.525 102.351
Tx-R-Rx 
-25.306 -24.0135 6
-32.2136 7.53233 0
-34.5162 18.0476 2
2828 4
-71.7054 1.4526e-07 3.65552e-09
1 0 -75.9572 139.701 1.42746e-07 84.635 -80.9358 95.365 99.0642
Tx-Rx 
-25.306 -24.0135 6
-32.0162 18.0476 2
2 1 -79.2988 174.525 1.50575e-07 84.9147 -109.418 95.0853 111.17
Tx-R-Rx 
-25.306 -24.0135 6
-36.5805 5.0994 3.22176
-32.0162 18.0476 2
3 1 -95.029 162.585 1.44606e-07 100.638 -80.9358 100.638 99.0642
Tx-R-Rx 
-25.306 -24.0135 6
-30.3386 7.53233 0
-32.0162 18.0476 2
4 2 -96.7144 -47.1032 1.52339e-07 100.092 -109.418 100.092 111.17
Tx-R-R-Rx 
-25.306 -24.0135 6
-36.5805 5.0994 0.44351
-35.7521 7.44957 0
-32.0162 18.0476 2
2829 4
-71.5628 1.45111e-07 5.37769e-09
1 0 -75.8919 46.2456 1.41678e-07 84.5944 -84.2839 95.4056 95.7161
Tx-Rx 
-25.306 -24.0135 6
-29.5162 18.0476 2
2 1 -79.875 39.4042 1.53539e-07 85.0131 -112.366 94.9869 114.118
Tx-R-Rx 
-25.306 -24.0135 6
-36.5183 1.0307 3.60567
-29.5162 18.0476 2
3 1 -95.2174 52.5403 1.43551e-07 100.717 -84.2839 100.717 95.7161
Tx-R-Rx 
-25.306 -24.0135 6
-28.4636 7.53233 0
-29.5162 18.0476 2
4 2 -96.7498 -141.188 1.5527e-07 99.8994 -112.366 99.8994 114.118
Tx-R-R-Rx 
-25.306 -24.0135 6
-36.5183 1.0307 1.21133
-33.8771 7.44957 0
-29.5162 18.0476 2
2830 3
-73.6196 1.4525e-07 6.96778e-09
1 0 -75.8561 60.524 1.41095e-07 84.572 -87.6717 95.428 92.3283
Tx-Rx 
-25.306 -24.0135 6
-27.0162 18.0476 2
2 1 -80.445 135.455 1.56891e-07 85.1199 -115.195 94.8801 116.947
Tx-R-Rx 
-25.306 -24.0135 6
-36.4712 -2.05005 3.89636
-27.0162 18.0476 2
3 2 -96.7539 -0.416421 1.58585e-07 99.6904 -115.195 99.6904 116.947
Tx-R-R-Rx 
-25.306 -24.0135 6
-36.4712 -2.05005 1.79271
-32.0021 7.44957 0
-27.0162 18.0476 2
2831 0
2832 0
2833 0
2834 0
2835 0
2836 0
2837 0
2838 0
2839 0
2840 0
2841 0
2842 0
2843 0
2844 0
2845 0
2846 0
2847 0
2848 0
2849 0
2850 0
2851 0
2852 0
2853 0
2854 0
2855 0
2856 0
2857 0
2858 0
2859 0
2860 0
2861 0
2862 0
2863 0
2864 0
2865 0
2866 0
2867 0
2868 0
2869 0
2870 0
2871 0
2872 0
2873 0
2874 0
2875 0
2876 0
2877 0
2878 0
2879 0
2880 0
2881 0
2882 0
2883 0
2884 0
2885 0
2886 0
2887 0
2888 0
2889 0
2890 0
2891 0
2892 0
2893 0
2894 0
2895 0
2896 0
2897 0
2898 0
2899 0
2900 0
2901 0
2902 0
2903 0
2904 1
-90.1678 2.92377e-07 0
1 1 -90.1678 62.8792 2.92377e-07 87.3836 78.2847 92.6164 100.78
Tx-R-Rx 
-25.306 -24.0135 6
-37.7278 41.2274 2.96511
-42.0162 20.5476 2
2905 1
-90.1548 2.908e-07 0
1 1 -90.1548 -109.711 2.908e-07 87.3694 79.8959 92.6306 99.1688
Tx-R-Rx 
-25.306 -24.0135 6
-35.8338 41.2119 2.96439
-39.5162 20.5476 2
2906 2
-77.9744 1.5435e-07 2.4541e-10
1 0 -76.634 -36.3964 1.54315e-07 85.0382 -75.2762 94.9618 104.724
Tx-Rx 
-25.306 -24.0135 6
-37.0162 20.5476 2
2 1 -93.3747 153.51 1.56037e-07 99.8503 -75.2762 99.8503 104.724
Tx-R-Rx 
-25.306 -24.0135 6
-34.0886 9.40733 0
-37.0162 20.5476 2
2907 3
-72.7842 1.5371e-07 1.71448e-09
1 0 -76.5265 -164.393 1.52416e-07 84.9763 -78.3222 95.0237 101.678
Tx-Rx 
-25.306 -24.0135 6
-34.5162 20.5476 2
2 1 -79.0582 163.013 1.56013e-07 85.0923 -105.493 94.9077 107.245
Tx-R-Rx 
-25.306 -24.0135 6
-36.6965 12.6819 2.70085
-34.5162 20.5476 2
3 1 -93.604 -0.368869 1.54159e-07 99.9714 -78.3222 99.9714 101.678
Tx-R-Rx 
-25.306 -24.0135 6
-32.2136 9.40733 0
-34.5162 20.5476 2
2908 4
-76.2002 1.53438e-07 3.52266e-09
1 0 -76.4429 -123.927 1.50955e-07 84.9275 -81.4365 95.0725 98.5635
Tx-Rx 
-25.306 -24.0135 6
-32.0162 20.5476 2
2 1 -79.6009 -11.7201 1.58437e-07 85.1676 -108.411 94.8324 110.163
Tx-R-Rx 
-25.306 -24.0135 6
-36.6059 6.75955 3.22855
-32.0162 20.5476 2
3 1 -93.7905 19.7867 1.52715e-07 100.067 -81.4365 100.067 98.5635
Tx-R-Rx 
-25.306 -24.0135 6
-30.3386 9.40733 0
-32.0162 20.5476 2
4 2 -95.6567 -127.543 1.60115e-07 99.597 -108.411 99.597 110.163
Tx-R-R-Rx 
-25.306 -24.0135 6
-36.6059 6.75955 0.457098
-35.7521 9.32457 0
-32.0162 20.5476 2
2909 4
-73.1227 1.53352e-07 5.18568e-09
1 0 -76.3846 68.8823 1.49945e-07 84.8932 -84.6027 95.1068 95.3973
Tx-Rx 
-25.306 -24.0135 6
-29.5162 20.5476 2
2 1 -80.1456 35.1708 1.61257e-07 85.2523 -111.235 94.7477 112.986
Tx-R-Rx 
-25.306 -24.0135 6
-36.5403 2.47051 3.61071
-29.5162 20.5476 2
3 1 -93.9249 -161.655 1.51717e-07 100.134 -84.6027 100.134 95.3973
Tx-R-Rx 
-25.306 -24.0135 6
-28.4636 9.40733 0
-29.5162 20.5476 2
4 2 -95.7737 -45.0067 1.62905e-07 99.431 -111.235 99.431 112.986
Tx-R-R-Rx 
-25.306 -24.0135 6
-36.5403 2.47051 1.22143
-33.8771 9.32457 0
-29.5162 20.5476 2
2910 3
-73.9459 1.53552e-07 6.74785e-09
1 0 -76.3526 42.5203 1.49395e-07 84.8744 -87.8022 95.1256 92.1978
Tx-Rx 
-25.306 -24.0135 6
-27.0162 20.5476 2
2 1 -80.6872 -30.6649 1.64452e-07 85.3448 -113.953 94.6552 115.705
Tx-R-Rx 
-25.306 -24.0135 6
-36.4907 -0.779018 3.90025
-27.0162 20.5476 2
3 2 -95.8619 -71.8298 1.66069e-07 99.2498 -113.953 99.2498 115.705
Tx-R-R-Rx 
-25.306 -24.0135 6
-36.4907 -0.779018 1.80051
-32.0021 9.32457 0
-27.0162 20.5476 2
2911 0
2912 0
2913 0
2914 0
2915 0
2916 0
2917 0
2918 0
2919 0
2920 0
2921 0
2922 0
2923 0
2924 0
2925 0
2926 0
2927 0
2928 0
2929 0
2930 0
2931 0
2932 0
2933 0
2934 0
2935 0
2936 0
2937 0
2938 0
2939 0
2940 0
2941 0
2942 0
2943 0
2944 0
2945 0
2946 0
2947 0
2948 0
2949 0
2950 0
2951 0
2952 0
2953 0
2954 0
2955 0
2956 0
2957 0
2958 0
2959 0
2960 0
2961 0
2962 0
2963 0
2964 0
2965 0
2966 0
2967 0
2968 0
2969 0
2970 0
2971 0
2972 0
2973 0
2974 0
2975 0
2976 0
2977 0
2978 0
2979 0
2980 0
2981 0
2982 0
2983 0
2984 1
-89.9147 2.84223e-07 0
1 1 -89.9147 -102.81 2.84223e-07 87.3084 77.9429 92.6916 101.122
Tx-R-Rx 
-25.306 -24.0135 6
-38.1323 41.2307 2.87409
-42.0162 23.0476 2
2985 1
-89.9011 2.826e-07 0
1 1 -89.9011 141.942 2.826e-07 87.293 79.5989 92.707 99.4659
Tx-R-Rx 
-25.306 -24.0135 6
-36.1815 41.2148 2.87332
-39.5162 23.0476 2
2986 2
-76.4201 1.62413e-07 2.68283e-10
1 0 -77.0759 -103.155 1.62368e-07 85.2849 -76.0269 94.7151 103.973
Tx-Rx 
-25.306 -24.0135 6
-37.0162 23.0476 2
2 1 -92.5442 -169.611 1.64005e-07 99.3672 -76.0269 99.3672 103.973
Tx-R-Rx 
-25.306 -24.0135 6
-34.0886 11.2823 0
-37.0162 23.0476 2
2987 3
-79.2144 1.61839e-07 1.65923e-09
1 0 -76.9789 8.84378 1.60564e-07 85.2318 -78.9268 94.7682 101.073
Tx-Rx 
-25.306 -24.0135 6
-34.5162 23.0476 2
2 1 -79.3843 130.558 1.64038e-07 85.333 -104.712 94.667 106.464
Tx-R-Rx 
-25.306 -24.0135 6
-36.7263 14.6304 2.71043
-34.5162 23.0476 2
3 1 -92.7122 -79.985 1.6222e-07 99.4713 -78.9268 99.4713 101.073
Tx-R-Rx 
-25.306 -24.0135 6
-32.2136 11.2823 0
-34.5162 23.0476 2
2988 4
-84.4262 1.61629e-07 3.39902e-09
1 0 -76.9036 -44.9245 1.59179e-07 85.1902 -81.8852 94.8098 98.1148
Tx-Rx 
-25.306 -24.0135 6
-32.0162 23.0476 2
2 1 -79.8971 103.152 1.66346e-07 85.3979 -107.501 94.6021 109.253
Tx-R-Rx 
-25.306 -24.0135 6
-36.6312 8.4116 3.23531
-32.0162 23.0476 2
3 1 -92.848 -151.268 1.60848e-07 99.5528 -81.8852 99.5528 98.1148
Tx-R-Rx 
-25.306 -24.0135 6
-30.3386 11.2823 0
-32.0162 23.0476 2
4 2 -94.8116 84.4598 1.67944e-07 99.1456 -107.501 99.1456 109.253
Tx-R-R-Rx 
-25.306 -24.0135 6
-36.6312 8.4116 0.47062
-35.7521 11.1996 0
-32.0162 23.0476 2
2989 4
-77.4668 1.61594e-07 5.00433e-09
1 0 -76.8512 81.724 1.58221e-07 85.161 -84.8878 94.839 95.1122
Tx-Rx 
-25.306 -24.0135 6
-29.5162 23.0476 2
2 1 -80.413 -43.7872 1.69034e-07 85.4712 -110.207 94.5288 111.959
Tx-R-Rx 
-25.306 -24.0135 6
-36.5623 3.90426 3.61574
-29.5162 23.0476 2
3 1 -92.9453 -36.8873 1.59901e-07 99.6099 -84.8878 99.6099 95.1122
Tx-R-Rx 
-25.306 -24.0135 6
-28.4636 11.2823 0
-29.5162 23.0476 2
4 2 -94.9827 -31.4117 1.70607e-07 99.0017 -110.207 99.0017 111.959
Tx-R-R-Rx 
-25.306 -24.0135 6
-36.5623 3.90426 1.23148
-33.8771 11.1996 0
-29.5162 23.0476 2
2990 3
-73.3747 1.6185e-07 6.5376e-09
1 0 -76.8225 18.9589 1.57699e-07 85.145 -87.9188 94.855 92.0812
Tx-Rx 
-25.306 -24.0135 6
-27.0162 23.0476 2
2 1 -80.9278 72.2233 1.72084e-07 85.5517 -112.822 94.4483 114.574
Tx-R-Rx 
-25.306 -24.0135 6
-36.51 0.487316 3.90414
-27.0162 23.0476 2
3 2 -95.128 118.744 1.7363e-07 98.8437 -112.822 98.8437 114.574
Tx-R-R-Rx 
-25.306 -24.0135 6
-36.51 0.487316 1.80827
-32.0021 11.1996 0
-27.0162 23.0476 2
2991 0
2992 0
2993 0
2994 0
2995 0
2996 0
2997 0
2998 0
2999 0
3000 0
3001 0
3002 0
3003 0
3004 0
3005 0
3006 0
3007 0
3008 0
3009 0
3010 0
3011 0
3012 0
3013 0
3014 0
3015 0
3016 0
3017 0
3018 0
3019 0
3020 0
3021 0
3022 0
3023 0
3024 0
3025 0
3026 0
3027 0
3028 0
3029 0
3030 0
3031 0
3032 0
3033 0
3034 0
3035 0
3036 0
3037 0
3038 0
3039 0
3040 0
3041 0
3042 0
3043 0
3044 0
3045 0
3046 0
3047 0
3048 0
3049 0
3050 0
3051 0
3052 0
3053 0
3054 0
3055 0
3056 0
3057 0
3058 0
3059 0
3060 0
3061 0
3062 0
3063 0
3064 0
3065 1
-89.6398 2.74409e-07 0
1 1 -89.6398 22.803 2.74409e-07 87.2121 79.2841 92.7879 99.7807
Tx-R-Rx 
-25.306 -24.0135 6
-36.5508 41.2178 2.77662
-39.5162 25.5476 2
3066 2
-76.1248 1.70503e-07 2.87014e-10
1 0 -77.4978 155.081 1.70448e-07 85.5089 -76.7061 94.4911 103.294
Tx-Rx 
-25.306 -24.0135 6
-37.0162 25.5476 2
2 1 -91.8953 -176.571 1.72009e-07 98.9277 -76.7061 98.9277 103.294
Tx-R-Rx 
-25.306 -24.0135 6
-34.0886 13.1573 0
-37.0162 25.5476 2
3067 3
-75.1192 1.69986e-07 1.60785e-09
1 0 -77.4099 158.243 1.68732e-07 85.4631 -79.4725 94.5369 100.527
Tx-Rx 
-25.306 -24.0135 6
-34.5162 25.5476 2
2 1 -79.7013 60.2265 1.72094e-07 85.5519 -104.004 94.4481 105.756
Tx-R-Rx 
-25.306 -24.0135 6
-36.7559 16.5676 2.71995
-34.5162 25.5476 2
3 1 -92.0203 167.165 1.70308e-07 99.0176 -79.4725 99.0176 100.527
Tx-R-Rx 
-25.306 -24.0135 6
-32.2136 13.1573 0
-34.5162 25.5476 2
3068 4
-82.8087 1.6983e-07 3.28396e-09
1 0 -77.3417 19.2686 1.67413e-07 85.4273 -82.2895 94.5727 97.7105
Tx-Rx 
-25.306 -24.0135 6
-32.0162 25.5476 2
2 1 -80.1869 167.156 1.74295e-07 85.6082 -106.674 94.3918 108.426
Tx-R-Rx 
-25.306 -24.0135 6
-36.6563 10.0556 3.24204
-32.0162 25.5476 2
3 1 -92.1207 13.0197 1.69002e-07 99.0879 -82.2895 99.0879 97.7105
Tx-R-Rx 
-25.306 -24.0135 6
-30.3386 13.1573 0
-32.0162 25.5476 2
4 2 -94.128 -122.286 1.75821e-07 98.7326 -106.674 98.7326 108.426
Tx-R-R-Rx 
-25.306 -24.0135 6
-36.6563 10.0556 0.484076
-35.7521 13.0746 0
-32.0162 25.5476 2
3069 4
-75.425 1.69839e-07 4.83349e-09
1 0 -77.2944 86.2311 1.66503e-07 85.4022 -85.1444 94.5978 94.8556
Tx-Rx 
-25.306 -24.0135 6
-29.5162 25.5476 2
2 1 -80.6765 172.386 1.76862e-07 85.6721 -109.271 94.3279 111.023
Tx-R-Rx 
-25.306 -24.0135 6
-36.5841 5.33199 3.62075
-29.5162 25.5476 2
3 1 -92.1924 69.3738 1.681e-07 99.1371 -85.1444 99.1371 94.8556
Tx-R-Rx 
-25.306 -24.0135 6
-28.4636 13.1573 0
-29.5162 25.5476 2
4 2 -94.3348 -89.8664 1.78367e-07 98.607 -109.271 98.607 111.023
Tx-R-R-Rx 
-25.306 -24.0135 6
-36.5841 5.33199 1.24149
-33.8771 13.0746 0
-29.5162 25.5476 2
3070 3
-78.1201 1.70144e-07 6.33716e-09
1 0 -77.2685 -9.32617 1.66007e-07 85.3885 -88.0237 94.6115 91.9763
Tx-Rx 
-25.306 -24.0135 6
-27.0162 25.5476 2
2 1 -81.1664 95.7071 1.7978e-07 85.7424 -111.788 94.2576 113.54
Tx-R-Rx 
-25.306 -24.0135 6
-36.5293 1.74898 3.90801
-27.0162 25.5476 2
3 2 -94.5191 -136.546 1.8126e-07 98.4686 -111.788 98.4686 113.54
Tx-R-R-Rx 
-25.306 -24.0135 6
-36.5293 1.74898 1.81601
-32.0021 13.0746 0
-27.0162 25.5476 2
3071 0
3072 0
3073 0
3074 0
3075 0
3076 0
3077 0
3078 0
3079 0
3080 0
3081 0
3082 0
3083 0
3084 0
3085 0
3086 0
3087 0
3088 0
3089 0
3090 0
3091 0
3092 0
3093 0
3094 0
3095 0
3096 0
3097 0
3098 0
3099 0
3100 0
3101 0
3102 0
3103 0
3104 0
3105 0
3106 0
3107 0
3108 0
3109 0
3110 0
3111 0
3112 0
3113 0
3114 0
3115 0
3116 0
3117 0
3118 0
3119 0
3120 0
3121 0
3122 0
3123 0
3124 0
3125 0
3126 0
3127 0
3128 0
3129 0
3130 0
3131 0
3132 0
3133 0
3134 0
3135 0
3136 0
3137 0
3138 0
3139 0
3140 0
3141 0
3142 0
3143 0
3144 0
3145 3
-80.9061 1.86201e-07 2.11199e-08
1 0 -77.9985 11.6846 1.80562e-07 85.7609 -74.7329 94.2391 105.267
Tx-Rx 
-25.306 -24.0135 6
-39.5162 28.0476 2
2 1 -89.3704 -108.123 2.66227e-07 87.1264 78.9498 92.8736 100.115
Tx-R-Rx 
-25.306 -24.0135 6
-36.9436 41.221 2.67375
-39.5162 28.0476 2
3 1 -91.273 147.309 1.82036e-07 98.4323 -74.7329 98.4323 105.267
Tx-R-Rx 
-25.306 -24.0135 6
-35.9636 15.0323 0
-39.5162 28.0476 2
3146 2
-78.5351 1.78617e-07 3.02098e-10
1 0 -77.9013 23.0634 1.78553e-07 85.7131 -77.3234 94.2869 102.677
Tx-Rx 
-25.306 -24.0135 6
-37.0162 28.0476 2
2 1 -91.3827 138.305 1.80043e-07 98.5263 -77.3234 98.5263 102.677
Tx-R-Rx 
-25.306 -24.0135 6
-34.0886 15.0323 0
-37.0162 28.0476 2
3147 2
-77.8948 1.76977e-07 2.99322e-10
1 0 -77.8212 -72.8949 1.76915e-07 85.6734 -79.9676 94.3266 100.032
Tx-Rx 
-25.306 -24.0135 6
-34.5162 28.0476 2
2 1 -91.4769 25.3973 1.78419e-07 98.6045 -79.9676 98.6045 100.032
Tx-R-Rx 
-25.306 -24.0135 6
-32.2136 15.0323 0
-34.5162 28.0476 2
3148 4
-77.9125 1.78042e-07 3.17681e-09
1 0 -77.7593 70.7346 1.75658e-07 85.6423 -82.6556 94.3577 97.3444
Tx-Rx 
-25.306 -24.0135 6
-32.0162 28.0476 2
2 1 -80.4703 -173.055 1.82279e-07 85.8009 -105.92 94.1991 107.671
Tx-R-Rx 
-25.306 -24.0135 6
-36.6813 11.6916 3.24873
-32.0162 28.0476 2
3 1 -91.5522 155.818 1.77173e-07 98.6655 -82.6556 98.6655 97.3444
Tx-R-Rx 
-25.306 -24.0135 6
-30.3386 15.0323 0
-32.0162 28.0476 2
4 2 -93.5695 -20.343 1.83739e-07 98.3535 -105.92 98.3535 107.671
Tx-R-R-Rx 
-25.306 -24.0135 6
-36.6813 11.6916 0.497467
-35.7521 14.9496 0
-32.0162 28.0476 2
3149 4
-78.5069 1.78086e-07 4.6728e-09
1 0 -77.7163 83.5884 1.74791e-07 85.6207 -85.3766 94.3793 94.6234
Tx-Rx 
-25.306 -24.0135 6
-29.5162 28.0476 2
2 1 -80.9357 -28.0641 1.84736e-07 85.8569 -108.415 94.1431 110.167
Tx-R-Rx 
-25.306 -24.0135 6
-36.6058 6.75373 3.62573
-29.5162 28.0476 2
3 1 -91.6058 159.45 1.76313e-07 98.7081 -85.3766 98.7081 94.6234
Tx-R-Rx 
-25.306 -24.0135 6
-28.4636 15.0323 0
-29.5162 28.0476 2
4 2 -93.7996 148.546 1.86176e-07 98.2434 -108.415 98.2434 110.167
Tx-R-R-Rx 
-25.306 -24.0135 6
-36.6058 6.75373 1.25146
-33.8771 14.9496 0
-29.5162 28.0476 2
3150 3
-76.3463 1.78436e-07 6.14644e-09
1 0 -77.6928 -41.6594 1.74319e-07 85.6088 -88.1185 94.3912 91.8815
Tx-Rx 
-25.306 -24.0135 6
-27.0162 28.0476 2
2 1 -81.4026 49.5603 1.87531e-07 85.9187 -110.84 94.0813 112.592
Tx-R-Rx 
-25.306 -24.0135 6
-36.5485 3.00598 3.91186
-27.0162 28.0476 2
3 2 -94.0102 -107.368 1.88951e-07 98.1216 -110.84 98.1216 112.592
Tx-R-R-Rx 
-25.306 -24.0135 6
-36.5485 3.00598 1.82372
-32.0021 14.9496 0
-27.0162 28.0476 2
3151 2
-83.0658 1.90728e-07 3.18871e-10
1 1 -81.8678 78.6263 1.90651e-07 85.9856 -113.189 94.0144 114.941
Tx-R-Rx 
-25.306 -24.0135 6
-36.5036 0.0643896 4.13644
-24.5162 28.0476 2
2 2 -94.2029 -49.6597 1.92047e-07 97.9897 -113.189 97.9897 114.941
Tx-R-R-Rx 
-25.306 -24.0135 6
-36.5036 0.0643896 2.27289
-30.1271 14.9496 0
-24.5162 28.0476 2
3152 0
3153 0
3154 0
3155 0
3156 0
3157 0
3158 0
3159 0
3160 0
3161 0
3162 0
3163 0
3164 0
3165 0
3166 0
3167 0
3168 0
3169 0
3170 0
3171 0
3172 0
3173 0
3174 0
3175 0
3176 0
3177 0
3178 0
3179 0
3180 0
3181 0
3182 0
3183 0
3184 0
3185 0
3186 0
3187 0
3188 0
3189 0
3190 0
3191 0
3192 0
3193 0
3194 0
3195 0
3196 0
3197 0
3198 0
3199 0
3200 0
3201 0
3202 0
3203 0
3204 0
3205 0
3206 0
3207 0
3208 0
3209 0
3210 0
3211 0
3212 0
3213 0
3214 0
3215 0
3216 0
3217 0
3218 0
3219 0
3220 0
3221 0
3222 0
3223 0
3224 0
3225 3
-83.3804 1.93834e-07 1.82019e-08
1 0 -78.3769 -37.6094 1.88601e-07 85.9419 -75.4019 94.0581 104.598
Tx-Rx 
-25.306 -24.0135 6
-39.5162 30.5476 2
2 1 -89.0925 108.041 2.58055e-07 87.0353 78.5944 92.9647 100.47
Tx-R-Rx 
-25.306 -24.0135 6
-37.3623 41.2244 2.5641
-39.5162 30.5476 2
3 1 -90.8909 175.387 1.90013e-07 98.0759 -75.4019 98.0759 104.598
Tx-R-Rx 
-25.306 -24.0135 6
-35.9636 16.9073 0
-39.5162 30.5476 2
3226 2
-80.4655 1.86752e-07 3.14034e-10
1 0 -78.2879 -135.267 1.86679e-07 85.9001 -77.8867 94.0999 102.113
Tx-Rx 
-25.306 -24.0135 6
-37.0162 30.5476 2
2 1 -90.9746 59.8125 1.88105e-07 98.1583 -77.8867 98.1583 102.113
Tx-R-Rx 
-25.306 -24.0135 6
-34.0886 16.9073 0
-37.0162 30.5476 2
3227 2
-80.4652 1.85184e-07 3.11958e-10
1 0 -78.2147 38.1544 1.85113e-07 85.8653 -80.4185 94.1347 99.5815
Tx-Rx 
-25.306 -24.0135 6
-34.5162 30.5476 2
2 1 -91.0463 -141.629 1.8655e-07 98.2268 -80.4185 98.2268 99.5815
Tx-R-Rx 
-25.306 -24.0135 6
-32.2136 16.9073 0
-34.5162 30.5476 2
3228 4
-75.6997 1.86262e-07 3.07693e-09
1 0 -78.1582 111.185 1.83912e-07 85.8383 -82.9887 94.1617 97.0113
Tx-Rx 
-25.306 -24.0135 6
-32.0162 30.5476 2
2 1 -80.7472 168.086 1.90294e-07 85.9781 -105.229 94.0219 106.981
Tx-R-Rx 
-25.306 -24.0135 6
-36.7062 13.3198 3.2554
-32.0162 30.5476 2
3 1 -91.1033 -80.1586 1.85359e-07 98.28 -82.9887 98.28 97.0113
Tx-R-Rx 
-25.306 -24.0135 6
-30.3386 16.9073 0
-32.0162 30.5476 2
4 2 -93.1094 36.5777 1.91693e-07 98.0046 -105.229 98.0046 106.981
Tx-R-R-Rx 
-25.306 -24.0135 6
-36.7062 13.3198 0.510793
-35.7521 16.8246 0
-32.0162 30.5476 2
3229 3
-73.7228 1.86395e-07 4.58325e-09
1 0 -78.119 74.7668 1.83084e-07 85.8194 -85.5875 94.1806 94.4125
Tx-Rx 
-25.306 -24.0135 6
-29.5162 30.5476 2
2 1 -81.1905 81.8043 1.92648e-07 86.0273 -107.629 93.9727 109.381
Tx-R-Rx 
-25.306 -24.0135 6
-36.6275 8.16954 3.63069
-29.5162 30.5476 2
3 2 -93.3544 -28.6079 1.94031e-07 97.9075 -107.629 97.9075 109.381
Tx-R-R-Rx 
-25.306 -24.0135 6
-36.6275 8.16954 1.26139
-33.8771 16.8246 0
-29.5162 30.5476 2
3230 3
-73.5248 1.86725e-07 5.9652e-09
1 0 -78.0975 -77.4882 1.82633e-07 85.8091 -88.2047 94.1909 91.7953
Tx-Rx 
-25.306 -24.0135 6
-27.0162 30.5476 2
2 1 -81.636 -57.9291 1.95331e-07 86.0819 -109.967 93.9181 111.719
Tx-R-Rx 
-25.306 -24.0135 6
-36.5677 4.25837 3.9157
-27.0162 30.5476 2
3 2 -93.5827 -144.907 1.96694e-07 97.7998 -109.967 97.7998 111.719
Tx-R-R-Rx 
-25.306 -24.0135 6
-36.5677 4.25837 1.8314
-32.0021 16.8246 0
-27.0162 30.5476 2
3231 2
-80.892 1.98413e-07 3.26565e-10
1 1 -82.081 125.669 1.98328e-07 86.1412 -112.238 93.8588 113.99
Tx-R-Rx 
-25.306 -24.0135 6
-36.5207 1.18713 4.1395
-24.5162 30.5476 2
2 2 -93.7952 64.1453 1.99671e-07 97.6828 -112.238 97.6828 113.99
Tx-R-R-Rx 
-25.306 -24.0135 6
-36.5207 1.18713 2.279
-30.1271 16.8246 0
-24.5162 30.5476 2
3232 0
3233 0
3234 0
3235 0
3236 0
3237 0
3238 0
3239 0
3240 0
3241 0
3242 0
3243 0
3244 0
3245 0
3246 0
3247 0
3248 0
3249 0
3250 0
3251 0
3252 0
3253 0
3254 0
3255 0
3256 0
3257 0
3258 0
3259 0
3260 0
3261 0
3262 0
3263 0
3264 0
3265 0
3266 0
3267 0
3268 0
3269 0
3270 0
3271 0
3272 0
3273 0
3274 0
3275 0
3276 0
3277 0
3278 0
3279 0
3280 0
3281 0
3282 0
3283 0
3284 0
3285 0
3286 0
3287 0
3288 0
3289 0
3290 0
3291 0
3292 0
3293 0
3294 0
3295 0
3296 0
3297 0
3298 0
3299 0
3300 0
3301 0
3302 0
3303 0
3304 0
3305 3
-77.3127 2.01247e-07 1.47963e-08
1 0 -78.7406 -118.671 1.96666e-07 86.1086 -76.0158 93.8914 103.984
Tx-Rx 
-25.306 -24.0135 6
-39.5162 33.0476 2
2 1 -88.8055 -49.9698 2.49895e-07 86.9384 78.2156 93.0616 100.849
Tx-R-Rx 
-25.306 -24.0135 6
-37.8095 41.2281 2.44696
-39.5162 33.0476 2
3 1 -90.584 165.777 1.9802e-07 97.7473 -76.0158 97.7473 103.984
Tx-R-Rx 
-25.306 -24.0135 6
-35.9636 18.7823 0
-39.5162 33.0476 2
3306 2
-78.442 1.94904e-07 3.23281e-10
1 0 -78.6588 43.3821 1.94823e-07 86.0717 -78.4027 93.9283 101.597
Tx-Rx 
-25.306 -24.0135 6
-37.0162 33.0476 2
2 1 -90.6483 -47.9911 1.96189e-07 97.82 -78.4027 97.82 101.597
Tx-R-Rx 
-25.306 -24.0135 6
-34.0886 18.7823 0
-37.0162 33.0476 2
3307 2
-78.8716 1.93402e-07 3.21761e-10
1 0 -78.5916 133.657 1.93322e-07 86.0412 -80.831 93.9588 99.169
Tx-Rx 
-25.306 -24.0135 6
-34.5162 33.0476 2
2 1 -90.7031 29.1871 1.947e-07 97.8802 -80.831 97.8802 99.169
Tx-R-Rx 
-25.306 -24.0135 6
-32.2136 18.7823 0
-34.5162 33.0476 2
3308 4
-73.6921 1.94489e-07 2.98371e-09
1 0 -78.5398 142.04 1.92173e-07 86.0175 -83.293 93.9825 96.707
Tx-Rx 
-25.306 -24.0135 6
-32.0162 33.0476 2
2 1 -81.0176 115.263 1.98336e-07 86.1414 -104.594 93.8586 106.346
Tx-R-Rx 
-25.306 -24.0135 6
-36.731 14.94 3.26203
-32.0162 33.0476 2
3 1 -90.7466 27.4013 1.93558e-07 97.927 -83.293 97.927 96.707
Tx-R-Rx 
-25.306 -24.0135 6
-30.3386 18.7823 0
-32.0162 33.0476 2
4 2 -92.7282 53.8137 1.99679e-07 97.6825 -104.594 97.6825 106.346
Tx-R-R-Rx 
-25.306 -24.0135 6
-36.731 14.94 0.524054
-35.7521 18.6996 0
-32.0162 33.0476 2
3309 3
-75.3269 1.94659e-07 4.44834e-09
1 0 -78.5039 60.5695 1.91381e-07 86.0009 -85.7802 93.9991 94.2198
Tx-Rx 
-25.306 -24.0135 6
-29.5162 33.0476 2
2 1 -81.4406 147.87 2.00596e-07 86.1849 -106.906 93.8151 108.658
Tx-R-Rx 
-25.306 -24.0135 6
-36.649 9.57943 3.63564
-29.5162 33.0476 2
3 2 -92.9823 105.122 2.01924e-07 97.5966 -106.906 97.5966 108.658
Tx-R-R-Rx 
-25.306 -24.0135 6
-36.649 9.57943 1.27127
-33.8771 18.6996 0
-29.5162 33.0476 2
3310 4
-78.2218 1.94584e-07 5.4529e-09
1 0 -78.4844 -116.356 1.90949e-07 85.9919 -88.2833 94.0081 91.7167
Tx-Rx 
-25.306 -24.0135 6
-27.0162 33.0476 2
2 1 -81.8663 140.303 2.03173e-07 86.2334 -109.162 93.7666 110.914
Tx-R-Rx 
-25.306 -24.0135 6
-36.5868 5.50616 3.91953
-27.0162 33.0476 2
3 1 -84.4142 85.2817 1.92076e-07 97.3859 -88.2833 97.3859 91.7167
Tx-R-Rx 
-25.306 -24.0135 6
-26.6233 19.939 0.3
-27.0162 33.0476 2
4 2 -93.222 118.388 2.04484e-07 97.5009 -109.162 97.5009 110.914
Tx-R-R-Rx 
-25.306 -24.0135 6
-36.5868 5.50616 1.83905
-32.0021 18.6996 0
-27.0162 33.0476 2
3311 2
-80.1699 2.06148e-07 3.32399e-10
1 1 -82.2924 107.585 2.06056e-07 86.2862 -111.358 93.7138 113.11
Tx-R-Rx 
-25.306 -24.0135 6
-36.5378 2.30619 4.14255
-24.5162 33.0476 2
2 2 -93.4479 108.372 2.07349e-07 97.3967 -111.358 97.3967 113.11
Tx-R-R-Rx 
-25.306 -24.0135 6
-36.5378 2.30619 2.2851
-30.1271 18.6996 0
-24.5162 33.0476 2
3312 0
3313 0
3314 0
3315 0
3316 0
3317 0
3318 0
3319 0
3320 0
3321 0
3322 0
3323 0
3324 0
3325 0
3326 0
3327 0
3328 0
3329 0
3330 0
3331 0
3332 0
3333 0
3334 0
3335 0
3336 0
3337 0
3338 0
3339 0
3340 0
3341 0
3342 0
3343 0
3344 0
3345 0
3346 0
3347 0
3348 0
3349 0
3350 0
3351 0
3352 0
3353 0
3354 0
3355 0
3356 0
3357 0
3358 0
3359 0
3360 0
3361 0
3362 0
3363 0
3364 0
3365 0
3366 0
3367 0
3368 0
3369 0
3370 0
3371 0
3372 0
3373 0
3374 0
3375 0
3376 0
3377 0
3378 0
3379 0
3380 0
3381 0
3382 0
3383 0
3384 0
3385 3
-74.9669 2.08391e-07 1.08827e-08
1 0 -79.0906 132.252 2.04752e-07 86.2625 -76.5811 93.7375 103.419
Tx-Rx 
-25.306 -24.0135 6
-39.5162 35.5476 2
2 1 -88.5088 136.408 2.41747e-07 86.8351 77.8112 93.1649 101.254
Tx-R-Rx 
-25.306 -24.0135 6
-38.2883 41.232 2.32156
-39.5162 35.5476 2
3 1 -90.3375 122.843 2.06053e-07 97.4435 -76.5811 97.4435 103.419
Tx-R-Rx 
-25.306 -24.0135 6
-35.9636 20.6573 0
-39.5162 35.5476 2
3386 2
-77.0606 2.03072e-07 3.30249e-10
1 0 -79.0152 -158.218 2.02983e-07 86.2299 -78.8771 93.7701 101.123
Tx-Rx 
-25.306 -24.0135 6
-37.0162 35.5476 2
2 1 -90.3868 178.339 2.04295e-07 97.5079 -78.8771 97.5079 101.123
Tx-R-Rx 
-25.306 -24.0135 6
-34.0886 20.6573 0
-37.0162 35.5476 2
3387 2
-77.169 2.01631e-07 3.2917e-10
1 0 -78.9534 -144.488 2.01543e-07 86.2029 -81.2097 93.7971 98.7903
Tx-Rx 
-25.306 -24.0135 6
-34.5162 35.5476 2
2 1 -90.4288 -179.525 2.02865e-07 97.5611 -81.2097 97.5611 98.7903
Tx-R-Rx 
-25.306 -24.0135 6
-32.2136 20.6573 0
-34.5162 35.5476 2
3388 4
-78.3502 2.02724e-07 2.89659e-09
1 0 -78.9057 164.485 2.00441e-07 86.182 -83.5721 93.818 96.4279
Tx-Rx 
-25.306 -24.0135 6
-32.0162 35.5476 2
2 1 -81.2816 32.4465 2.06402e-07 86.2924 -104.01 93.7076 105.762
Tx-R-Rx 
-25.306 -24.0135 6
-36.7556 16.5524 3.26863
-32.0162 35.5476 2
3 1 -90.4621 120.461 2.0177e-07 97.6024 -83.5721 97.6024 96.4279
Tx-R-Rx 
-25.306 -24.0135 6
-30.3386 20.6573 0
-32.0162 35.5476 2
4 2 -92.4112 35.9152 2.07693e-07 97.3844 -104.01 97.3844 105.762
Tx-R-R-Rx 
-25.306 -24.0135 6
-36.7556 16.5524 0.537252
-35.7521 20.5746 0
-32.0162 35.5476 2
3389 3
-82.0493 2.02926e-07 4.32128e-09
1 0 -78.8728 41.6667 1.99681e-07 86.1674 -85.9567 93.8326 94.0433
Tx-Rx 
-25.306 -24.0135 6
-29.5162 35.5476 2
2 1 -81.6859 175.139 2.08574e-07 86.3311 -106.238 93.6689 107.99
Tx-R-Rx 
-25.306 -24.0135 6
-36.6705 10.9835 3.64056
-29.5162 35.5476 2
3 2 -92.6702 -164.746 2.09852e-07 97.308 -106.238 97.308 107.99
Tx-R-R-Rx 
-25.306 -24.0135 6
-36.6705 10.9835 1.28112
-33.8771 20.5746 0
-29.5162 35.5476 2
3390 4
-79.9428 2.02852e-07 5.29142e-09
1 0 -78.8548 -157.882 1.99268e-07 86.1595 -88.3553 93.8405 91.6447
Tx-Rx 
-25.306 -24.0135 6
-27.0162 35.5476 2
2 1 -82.0933 -69.6946 2.11054e-07 86.3742 -108.417 93.6258 110.169
Tx-R-Rx 
-25.306 -24.0135 6
-36.6058 6.74937 3.92334
-27.0162 35.5476 2
3 1 -84.5195 102.628 2.00348e-07 97.0794 -88.3553 97.0794 91.6447
Tx-R-Rx 
-25.306 -24.0135 6
-26.6233 21.8647 0.3
-27.0162 35.5476 2
4 2 -92.9169 -30.9882 2.12317e-07 97.2227 -108.417 97.2227 110.169
Tx-R-R-Rx 
-25.306 -24.0135 6
-36.6058 6.74937 1.84668
-32.0021 20.5746 0
-27.0162 35.5476 2
3391 2
-81.0774 2.1393e-07 3.36629e-10
1 1 -82.5018 31.4352 2.13831e-07 86.4214 -110.543 93.5786 112.295
Tx-R-Rx 
-25.306 -24.0135 6
-36.5549 3.42159 4.14559
-24.5162 35.5476 2
2 2 -93.1517 90.4572 2.15077e-07 97.1295 -110.543 97.1295 112.295
Tx-R-R-Rx 
-25.306 -24.0135 6
-36.5549 3.42159 2.29118
-30.1271 20.5746 0
-24.5162 35.5476 2
3392 0
3393 0
3394 0
3395 0
3396 0
3397 0
3398 0
3399 0
3400 0
3401 0
3402 0
3403 0
3404 0
3405 0
3406 0
3407 0
3408 0
3409 0
3410 0
3411 0
3412 0
3413 0
3414 0
3415 0
3416 0
3417 0
3418 0
3419 0
3420 0
3421 0
3422 0
3423 0
3424 0
3425 0
3426 0
3427 0
3428 0
3429 0
3430 0
3431 0
3432 0
3433 0
3434 0
3435 0
3436 0
3437 0
3438 0
3439 0
3440 0
3441 0
3442 0
3443 0
3444 0
3445 0
3446 0
3447 0
3448 0
3449 0
3450 0
3451 0
3452 0
3453 0
3454 0
3455 0
3456 0
3457 0
3458 0
3459 0
3460 0
3461 0
3462 0
3463 0
3464 2
-78.2936 2.1497e-07 3.37032e-10
1 0 -79.5096 -16.9247 2.14871e-07 86.4387 -74.9303 93.5613 105.07
Tx-Rx 
-25.306 -24.0135 6
-42.0162 38.0476 2
2 1 -90.0973 49.5658 2.16111e-07 97.0952 -74.9303 97.0952 105.07
Tx-R-Rx 
-25.306 -24.0135 6
-37.8386 22.5323 0
-42.0162 38.0476 2
3465 2
-77.8324 2.12956e-07 3.3613e-10
1 0 -79.4279 -1.64533 2.12858e-07 86.405 -77.1033 93.595 102.897
Tx-Rx 
-25.306 -24.0135 6
-39.5162 38.0476 2
2 1 -90.1398 50.3149 2.1411e-07 97.1619 -77.1033 97.1619 102.897
Tx-R-Rx 
-25.306 -24.0135 6
-35.9636 22.5323 0
-39.5162 38.0476 2
3466 3
-77.2591 2.13486e-07 6.42544e-09
1 0 -79.3581 -17.7212 2.11157e-07 86.376 -79.3146 93.624 100.685
Tx-Rx 
-25.306 -24.0135 6
-37.0162 38.0476 2
2 1 -88.1852 -101.561 2.31936e-07 86.7011 79.3932 93.2989 99.6716
Tx-R-Rx 
-25.306 -24.0135 6
-36.4227 41.2168 2.18585
-37.0162 38.0476 2
3 1 -90.1776 21.74 2.12419e-07 97.2192 -79.3146 97.2192 100.685
Tx-R-Rx 
-25.306 -24.0135 6
-34.0886 22.5323 0
-37.0162 38.0476 2
3467 2
-77.3184 2.09869e-07 3.34562e-10
1 0 -79.301 -74.6755 2.09774e-07 86.3521 -81.5586 93.6479 98.4414
Tx-Rx 
-25.306 -24.0135 6
-34.5162 38.0476 2
2 1 -90.2098 -45.5227 2.11044e-07 97.2665 -81.5586 97.2665 98.4414
Tx-R-Rx 
-25.306 -24.0135 6
-32.2136 22.5323 0
-34.5162 38.0476 2
3468 2
-77.1975 2.08809e-07 3.33969e-10
1 0 -79.2571 179.52 2.08715e-07 86.3335 -83.829 93.6665 96.171
Tx-Rx 
-25.306 -24.0135 6
-32.0162 38.0476 2
2 1 -90.2353 -159.308 2.09991e-07 97.3031 -83.829 97.3031 96.171
Tx-R-Rx 
-25.306 -24.0135 6
-30.3386 22.5323 0
-32.0162 38.0476 2
3469 3
-89.4695 2.11195e-07 4.2015e-09
1 0 -79.2267 18.6218 2.07985e-07 86.3207 -86.119 93.6793 93.881
Tx-Rx 
-25.306 -24.0135 6
-29.5162 38.0476 2
2 1 -81.9264 167.899 2.1658e-07 86.4669 -105.62 93.5331 107.372
Tx-R-Rx 
-25.306 -24.0135 6
-36.6919 12.3816 3.64546
-29.5162 38.0476 2
3 2 -92.408 -113.467 2.17811e-07 97.0396 -105.62 97.0396 107.372
Tx-R-R-Rx 
-25.306 -24.0135 6
-36.6919 12.3816 1.29092
-33.8771 22.4496 0
-29.5162 38.0476 2
3470 4
-75.0423 2.11121e-07 5.13942e-09
1 0 -79.2101 158.253 2.07589e-07 86.3136 -88.4215 93.6864 91.5785
Tx-Rx 
-25.306 -24.0135 6
-27.0162 38.0476 2
2 1 -82.3167 37.2864 2.1897e-07 86.5055 -107.726 93.4945 109.478
Tx-R-Rx 
-25.306 -24.0135 6
-36.6247 7.98804 3.92714
-27.0162 38.0476 2
3 1 -84.6329 112.966 2.08626e-07 96.7971 -88.4215 96.7971 91.5785
Tx-R-Rx 
-25.306 -24.0135 6
-26.6233 23.7903 0.3
-27.0162 38.0476 2
4 2 -92.6585 132.571 2.20186e-07 96.9632 -107.726 96.9632 109.478
Tx-R-R-Rx 
-25.306 -24.0135 6
-36.6247 7.98804 1.85427
-32.0021 22.4496 0
-27.0162 38.0476 2
3471 2
-83.4211 2.21752e-07 3.39484e-10
1 1 -82.7087 -96.6713 2.21647e-07 86.5477 -109.785 93.4523 111.536
Tx-R-Rx 
-25.306 -24.0135 6
-36.5719 4.53334 4.14862
-24.5162 38.0476 2
2 2 -92.8986 16.8543 2.22849e-07 96.8796 -109.785 96.8796 111.536
Tx-R-R-Rx 
-25.306 -24.0135 6
-36.5719 4.53334 2.29724
-30.1271 22.4496 0
-24.5162 38.0476 2
3472 0
3473 0
3474 0
3475 0
3476 0
3477 0
3478 0
3479 0
3480 0
3481 0
3482 0
3483 0
3484 0
3485 0
3486 0
3487 0
3488 0
3489 0
3490 0
3491 0
3492 0
3493 0
3494 0
3495 0
3496 0
3497 0
3498 0
3499 0
3500 0
3501 0
3502 0
3503 0
3504 0
3505 0
3506 0
3507 0
3508 0
3509 0
3510 0
3511 0
3512 0
3513 0
3514 0
3515 0
3516 0
3517 0
3518 0
3519 0
3520 0
3521 0
3522 0
3523 0
3524 0
3525 0
3526 0
3527 0
3528 0
3529 0
3530 0
3531 0
3532 0
3533 0
3534 0
3535 0
3536 0
3537 0
3538 0
3539 0
3540 0
3541 0
3542 0
3543 0
3544 2
-80.9852 2.23027e-07 3.39776e-10
1 0 -79.8291 -80.5357 2.22921e-07 86.5675 -75.4887 93.4325 104.511
Tx-Rx 
-25.306 -24.0135 6
-42.0162 40.5476 2
2 1 -89.9498 41.5135 2.24117e-07 96.8405 -75.4887 96.8405 104.511
Tx-R-Rx 
-25.306 -24.0135 6
-37.8386 24.4073 0
-42.0162 40.5476 2
3545 2
-80.2399 2.21087e-07 3.39234e-10
1 0 -79.7532 -157.633 2.20982e-07 86.5373 -77.5869 93.4627 102.413
Tx-Rx 
-25.306 -24.0135 6
-39.5162 40.5476 2
2 1 -89.9822 -48.6006 2.22188e-07 96.9002 -77.5869 96.9002 102.413
Tx-R-Rx 
-25.306 -24.0135 6
-35.9636 24.4073 0
-39.5162 40.5476 2
3546 2
-79.6473 2.19447e-07 3.3872e-10
1 0 -79.6886 106.876 2.19344e-07 86.5114 -79.7194 93.4886 100.281
Tx-Rx 
-25.306 -24.0135 6
-37.0162 40.5476 2
2 1 -90.0111 -155.269 2.20559e-07 96.9514 -79.7194 96.9514 100.281
Tx-R-Rx 
-25.306 -24.0135 6
-34.0886 24.4073 0
-37.0162 40.5476 2
3547 2
-79.2004 2.18114e-07 3.38261e-10
1 0 -79.6357 -15.5417 2.18012e-07 86.4901 -81.8811 93.5099 98.1189
Tx-Rx 
-25.306 -24.0135 6
-34.5162 40.5476 2
2 1 -90.0356 73.1103 2.19235e-07 96.9936 -81.8811 96.9936 98.1189
Tx-R-Rx 
-25.306 -24.0135 6
-32.2136 24.4073 0
-34.5162 40.5476 2
3548 2
-78.8826 2.17095e-07 3.37886e-10
1 0 -79.595 -172.007 2.16994e-07 86.4736 -84.0663 93.5264 95.9337
Tx-Rx 
-25.306 -24.0135 6
-32.0162 40.5476 2
2 1 -90.055 -90.4717 2.18222e-07 97.0263 -84.0663 97.0263 95.9337
Tx-R-Rx 
-25.306 -24.0135 6
-30.3386 24.4073 0
-32.0162 40.5476 2
3549 4
-79.1172 2.19122e-07 3.83382e-09
1 0 -79.5669 -8.08829 2.16292e-07 86.4622 -86.2689 93.5378 93.7311
Tx-Rx 
-25.306 -24.0135 6
-29.5162 40.5476 2
2 1 -82.162 129.841 2.2461e-07 86.5933 -105.046 93.4067 106.798
Tx-R-Rx 
-25.306 -24.0135 6
-36.7132 13.774 3.65034
-29.5162 40.5476 2
3 1 -84.7582 -1.10647 2.17287e-07 96.525 -86.2689 96.525 93.7311
Tx-R-Rx 
-25.306 -24.0135 6
-28.549 25.716 0.3
-29.5162 40.5476 2
4 2 -92.1875 -96.9434 2.25797e-07 96.7894 -105.046 96.7894 106.798
Tx-R-R-Rx 
-25.306 -24.0135 6
-36.7132 13.774 1.30068
-33.8771 24.3246 0
-29.5162 40.5476 2
3550 4
-73.2028 2.19392e-07 4.99621e-09
1 0 -79.5515 112.32 2.15911e-07 86.4559 -88.4826 93.5441 91.5174
Tx-Rx 
-25.306 -24.0135 6
-27.0162 40.5476 2
2 1 -82.5366 105.747 2.26915e-07 86.628 -107.084 93.372 108.836
Tx-R-Rx 
-25.306 -24.0135 6
-36.6436 9.22219 3.93092
-27.0162 40.5476 2
3 1 -84.7526 117.099 2.16908e-07 96.5364 -88.4826 96.5364 91.5174
Tx-R-Rx 
-25.306 -24.0135 6
-26.6233 25.716 0.3
-27.0162 40.5476 2
4 2 -92.4395 -106.073 2.2809e-07 96.7208 -107.084 96.7208 108.836
Tx-R-R-Rx 
-25.306 -24.0135 6
-36.6436 9.22219 1.86184
-32.0021 24.3246 0
-27.0162 40.5476 2
3551 2
-86.1075 2.29611e-07 3.41166e-10
1 1 -82.9132 88.5735 2.295e-07 86.666 -109.078 93.334 110.83
Tx-R-Rx 
-25.306 -24.0135 6
-36.5888 5.64147 4.15164
-24.5162 40.5476 2
2 2 -92.6825 -106.815 2.30662e-07 96.6456 -109.078 96.6456 110.83
Tx-R-R-Rx 
-25.306 -24.0135 6
-36.5888 5.64147 2.30328
-30.1271 24.3246 0
-24.5162 40.5476 2
3552 0
3553 0
3554 0
3555 0
3556 0
3557 0
3558 0
3559 0
3560 0
3561 0
3562 0
3563 0
3564 0
3565 0
3566 0
3567 0
3568 0
3569 0
3570 0
3571 0
3572 0
3573 0
3574 0
3575 0
3576 0
3577 0
3578 0
3579 0
3580 0
3581 0
3582 0
3583 0
3584 0
3585 0
3586 0
3587 0
3588 0
3589 0
3590 0
3591 0
3592 0
3593 0
3594 0
3595 0
3596 0
3597 0
3598 0
3599 0
3600 0
3601 0
3602 0
3603 0
3604 0
3605 0
3606 0
3607 0
3608 0
3609 0
3610 0
3611 0
3612 0
3613 0
3614 0
3615 0
3616 0
3617 0
3618 0
3619 0
3620 0
3621 0
3622 0
3623 0
3624 0
3625 0
3626 0
3627 0
3628 0
3629 4
-75.9936 2.27386e-07 3.73025e-09
1 0 -79.8943 -38.0568 2.24602e-07 86.5932 -86.4076 93.4068 93.5924
Tx-Rx 
-25.306 -24.0135 6
-29.5162 43.0476 2
2 1 -82.3929 64.1539 2.32663e-07 86.7114 -104.512 93.2886 106.264
Tx-R-Rx 
-25.306 -24.0135 6
-36.7344 15.1607 3.6552
-29.5162 43.0476 2
3 1 -84.8828 15.0739 2.2556e-07 96.2847 -86.4076 96.2847 93.5924
Tx-R-Rx 
-25.306 -24.0135 6
-28.549 27.6417 0.3
-29.5162 43.0476 2
4 2 -92.0023 -111.621 2.33808e-07 96.5557 -104.512 96.5557 106.264
Tx-R-R-Rx 
-25.306 -24.0135 6
-36.7344 15.1607 1.31041
-33.8771 26.1996 0
-29.5162 43.0476 2
3630 4
-74.8324 2.27665e-07 4.86114e-09
1 0 -79.8801 64.5479 2.24234e-07 86.5876 -88.5392 93.4124 91.4608
Tx-Rx 
-25.306 -24.0135 6
-27.0162 43.0476 2
2 1 -82.7528 139.596 2.34888e-07 86.7426 -106.485 93.2574 108.237
Tx-R-Rx 
-25.306 -24.0135 6
-36.6624 10.4518 3.93469
-27.0162 43.0476 2
3 1 -84.8772 115.711 2.25195e-07 96.2949 -88.5392 96.2949 91.4608
Tx-R-Rx 
-25.306 -24.0135 6
-26.6233 27.6417 0.3
-27.0162 43.0476 2
4 2 -92.2541 -22.6863 2.36023e-07 96.4939 -106.485 96.4939 108.237
Tx-R-R-Rx 
-25.306 -24.0135 6
-36.6624 10.4518 1.86938
-32.0021 26.1996 0
-27.0162 43.0476 2
3631 2
-85.767 2.37503e-07 3.41851e-10
1 1 -83.115 -128.201 2.37387e-07 86.7769 -108.419 93.2231 110.171
Tx-R-Rx 
-25.306 -24.0135 6
-36.6057 6.74599 4.15465
-24.5162 43.0476 2
2 2 -92.4981 84.3623 2.3851e-07 96.426 -108.419 96.426 110.171
Tx-R-R-Rx 
-25.306 -24.0135 6
-36.6057 6.74599 2.3093
-30.1271 26.1996 0
-24.5162 43.0476 2
3632 0
3633 0
3634 0
3635 0
3636 0
3637 0
3638 0
3639 0
3640 0
3641 0
3642 0
3643 0
3644 0
3645 0
3646 0
3647 0
3648 0
3649 0
3650 0
3651 0
3652 0
3653 0
3654 0
3655 0
3656 0
3657 0
3658 0
3659 0
3660 0
3661 0
3662 0
3663 0
3664 0
3665 0
3666 0
3667 0
3668 0
3669 0
3670 0
3671 0
3672 0
3673 0
3674 0
3675 0
3676 0
3677 0
3678 0
3679 0
3680 0
3681 0
3682 0
3683 0
3684 0
3685 0
3686 0
3687 0
3688 0
3689 0
3690 0
3691 0
3692 0
3693 0
3694 0
3695 0
3696 0
3697 0
3698 0
3699 0
3700 0
3701 0
3702 0
3703 0
3704 0
3705 0
3706 0
3707 0
3708 0
3709 2
-79.3807 2.33143e-07 3.9966e-10
1 0 -80.21 -70.9349 2.32913e-07 86.7149 -86.5364 93.2851 93.4636
Tx-Rx 
-25.306 -24.0135 6
-29.5162 45.5476 2
2 1 -85.011 25.0842 2.33838e-07 96.0614 -86.5364 96.0614 93.4636
Tx-R-Rx 
-25.306 -24.0135 6
-28.549 29.5674 0.3
-29.5162 45.5476 2
3710 3
-79.9711 2.36449e-07 5.05432e-09
1 0 -80.1968 15.1355 2.32559e-07 86.7099 -88.5917 93.2901 91.4083
Tx-Rx 
-25.306 -24.0135 6
-27.0162 45.5476 2
2 1 -82.9653 142.242 2.42886e-07 86.8499 -105.926 93.1501 107.678
Tx-R-Rx 
-25.306 -24.0135 6
-36.6811 11.677 3.93845
-27.0162 45.5476 2
3 2 -92.0976 26.4294 2.43984e-07 96.2812 -105.926 96.2812 107.678
Tx-R-R-Rx 
-25.306 -24.0135 6
-36.6811 11.677 1.8769
-32.0021 28.0746 0
-27.0162 45.5476 2
3711 2
-83.4298 2.45424e-07 3.41691e-10
1 1 -83.314 -22.9435 2.45303e-07 86.881 -107.803 93.119 109.555
Tx-R-Rx 
-25.306 -24.0135 6
-36.6225 7.84691 4.15765
-24.5162 45.5476 2
2 2 -92.3412 -125.303 2.4639e-07 96.2196 -107.803 96.2196 109.555
Tx-R-R-Rx 
-25.306 -24.0135 6
-36.6225 7.84691 2.3153
-30.1271 28.0746 0
-24.5162 45.5476 2
3712 0
3713 0
3714 0
3715 0
3716 0
3717 0
3718 0
3719 0
3720 0
3721 0
3722 0
3723 0
3724 0
3725 0
3726 0
3727 0
3728 0
3729 0
3730 0
3731 0
3732 0
3733 0
3734 0
3735 0
3736 0
3737 0
3738 0
3739 0
3740 0
3741 0
3742 0
3743 0
3744 0
3745 0
3746 0
3747 0
3748 0
3749 0
3750 0
3751 0
3752 0
3753 0
3754 0
3755 0
3756 0
3757 0
3758 0
3759 0
3760 0
3761 0
3762 0
3763 0
3764 0
3765 0
3766 0
3767 0
3768 0
3769 0
3770 0
3771 0
3772 0
3773 0
3774 0
3775 0
3776 0
3777 0
3778 0
3779 0
3780 0
3781 0
3782 0
3783 0
3784 0
3785 0
3786 0
3787 0
3788 0
3789 2
-83.5218 2.41456e-07 3.89776e-10
1 0 -80.5146 -106.422 2.41227e-07 86.8283 -86.6563 93.1717 93.3437
Tx-Rx 
-25.306 -24.0135 6
-29.5162 48.0476 2
2 1 -85.142 29.5572 2.4212e-07 95.8533 -86.6563 95.8533 93.3437
Tx-R-Rx 
-25.306 -24.0135 6
-28.549 31.493 0.3
-29.5162 48.0476 2
3790 3
-83.3472 2.44737e-07 4.92783e-09
1 0 -80.5023 -35.7475 2.40886e-07 86.8238 -88.6405 93.1762 91.3595
Tx-Rx 
-25.306 -24.0135 6
-27.0162 48.0476 2
2 1 -83.174 116.669 2.50907e-07 86.9507 -105.403 93.0493 107.154
Tx-R-Rx 
-25.306 -24.0135 6
-36.6998 12.8977 3.94219
-27.0162 48.0476 2
3 2 -91.966 44.5187 2.51969e-07 96.0814 -105.403 96.0814 107.154
Tx-R-R-Rx 
-25.306 -24.0135 6
-36.6998 12.8977 1.88438
-32.0021 29.9496 0
-27.0162 48.0476 2
3791 2
-81.7401 2.53372e-07 3.40819e-10
1 1 -83.5101 47.9074 2.53247e-07 86.9789 -107.225 93.0211 108.977
Tx-R-Rx 
-25.306 -24.0135 6
-36.6393 8.94427 4.16064
-24.5162 48.0476 2
2 2 -92.2082 -12.0176 2.543e-07 96.0254 -107.225 96.0254 108.977
Tx-R-R-Rx 
-25.306 -24.0135 6
-36.6393 8.94427 2.32128
-30.1271 29.9496 0
-24.5162 48.0476 2
3792 0
3793 0
3794 0
3795 0
3796 0
3797 0
3798 0
3799 0
3800 0
3801 0
3802 0
3803 0
3804 0
3805 0
3806 0
3807 0
3808 0
3809 0
3810 0
3811 0
3812 0
3813 0
3814 0
3815 0
3816 0
3817 0
3818 0
3819 0
3820 0
3821 0
3822 0
3823 0
3824 0
3825 0
3826 0
3827 0
3828 0
3829 0
3830 0
3831 0
3832 0
3833 0
3834 0
3835 0
3836 0
3837 0
3838 0
3839 0
3840 0
3841 0
3842 0
3843 0
3844 0
3845 0
3846 0
3847 0
3848 0
3849 0
3850 0
3851 0
3852 0
3853 0
3854 0
3855 0
3856 0
3857 0
3858 0
3859 0
3860 0
3861 0
3862 0
3863 0
3864 0
3865 0
3866 0
3867 0
3868 0
3869 2
-88.5103 2.4977e-07 3.80211e-10
1 0 -80.809 -144.257 2.49543e-07 86.9341 -86.7682 93.0659 93.2318
Tx-Rx 
-25.306 -24.0135 6
-29.5162 50.5476 2
2 1 -85.275 29.0423 2.50406e-07 95.6589 -86.7682 95.6589 93.2318
Tx-R-Rx 
-25.306 -24.0135 6
-28.549 33.4187 0.3
-29.5162 50.5476 2
3870 1
-80.7975 2.49213e-07 0
1 0 -80.7975 -87.9538 2.49213e-07 86.93 -88.6861 93.07 91.3139
Tx-Rx 
-25.306 -24.0135 6
-27.0162 50.5476 2
3871 0
3872 0
3873 0
3874 0
3875 0
3876 0
3877 0
3878 0
3879 0
3880 0
3881 0
3882 0
3883 0
3884 0
3885 0
3886 0
3887 0
3888 0
3889 0
3890 0
3891 0
3892 0
3893 0
3894 0
3895 0
3896 0
3897 0
3898 0
3899 0
3900 0
3901 0
3902 0
3903 0
3904 0
3905 0
3906 0
3907 0
3908 0
3909 0
3910 0
3911 0
3912 0
3913 0
3914 0
3915 0
3916 0
3917 0
3918 0
3919 0
3920 0
3921 0
3922 0
3923 0
3924 0
3925 0
3926 0
3927 0
3928 0
3929 0
3930 0
3931 0
3932 0
3933 0
3934 0
3935 0
3936 0
3937 0
3938 0
3939 0
3940 0
3941 0
3942 0
3943 0
3944 0
3945 0
3946 0
3947 0
3948 0
3949 3
-87.1682 2.58112e-07 2.91361e-10
1 0 -81.0938 175.787 2.5786e-07 87.033 -86.8728 92.967 93.1272
Tx-Rx 
-25.306 -24.0135 6
-29.5162 53.0476 2
2 1 -81.6586 -11.2793 2.58152e-07 87.0364 -93.4982 92.9636 94.2472
Tx-R-Rx 
-25.306 -24.0135 6
-30.1991 41.8755 2.57947
-29.5162 53.0476 2
3 1 -85.4095 24.0186 2.58696e-07 95.477 -86.8728 95.477 93.1272
Tx-R-Rx 
-25.306 -24.0135 6
-28.549 35.3444 0.3
-29.5162 53.0476 2
3950 1
-81.0831 2.57541e-07 0
1 0 -81.0831 -141.355 2.57541e-07 87.0294 -88.7287 92.9706 91.2713
Tx-Rx 
-25.306 -24.0135 6
-27.0162 53.0476 2
3951 0
3952 0
3953 0
3954 0
3955 0
3956 0
3957 0
3958 0
3959 0
3960 0
3961 0
3962 0
3963 0
3964 0
3965 0
3966 0
3967 0
3968 0
3969 0
3970 0
3971 0
3972 0
3973 0
3974 0
3975 0
3976 0
3977 0
3978 0
3979 0
3980 0
3981 0
3982 0
3983 0
3984 0
3985 0
3986 0
3987 0
3988 0
3989 0
3990 0
3991 0
3992 0
3993 0
3994 0
3995 0
3996 0
3997 0
3998 0
3999 0
4000 0
4001 0
4002 0
4003 0
4004 0
4005 0
4006 0
4007 0
4008 0
4009 0
4010 0
4011 0
4012 0
4013 0
4014 0
4015 0
4016 0
4017 0
4018 0
4019 0
4020 0
4021 0
4022 0
4023 0
4024 0
4025 0
4026 0
4027 0
4028 0
4029 4
-83.5076 2.66486e-07 3.65154e-10
1 0 -81.3696 133.908 2.66179e-07 87.1258 -86.9709 92.8742 93.0291
Tx-Rx 
-25.306 -24.0135 6
-29.5162 55.5476 2
2 1 -81.9183 -49.3759 2.66468e-07 87.129 -93.3886 92.871 94.1376
Tx-R-Rx 
-25.306 -24.0135 6
-30.2117 43.8008 2.59015
-29.5162 55.5476 2
3 1 -85.5448 14.9062 2.66989e-07 95.3064 -86.9709 95.3064 93.0291
Tx-R-Rx 
-25.306 -24.0135 6
-28.549 37.2701 0.3
-29.5162 55.5476 2
4 2 -90.1222 -44.2277 2.67468e-07 95.7277 -93.3886 95.7277 94.1376
Tx-R-R-Rx 
-25.306 -24.0135 6
-29.6221 35.6498 -8.88178e-16
-30.2117 43.8008 0.819703
-29.5162 55.5476 2
4030 1
-81.3595 2.6587e-07 0
1 0 -81.3595 164.161 2.6587e-07 87.1225 -88.7686 92.8775 91.2314
Tx-Rx 
-25.306 -24.0135 6
-27.0162 55.5476 2
4031 0
4032 0
4033 0
4034 0
4035 0
4036 0
4037 0
4038 0
4039 0
4040 0
4041 0
4042 0
4043 0
4044 0
4045 0
4046 0
4047 0
4048 0
4049 0
4050 0
4051 0
4052 0
4053 0
4054 0
4055 0
4056 0
4057 0
4058 0
4059 0
4060 0
4061 0
4062 0
4063 0
4064 0
4065 0
4066 0
4067 0
4068 0
4069 0
4070 0
4071 0
4072 0
4073 0
4074 0
4075 0
4076 0
4077 0
4078 0
4079 0
4080 0
4081 0
4082 0
4083 0
4084 0
4085 0
4086 0
4087 0
4088 0
4089 0
4090 0
4091 0
4092 0
4093 0
4094 0
4095 0
4096 0
4097 0
4098 0
4099 0
4100 0
4101 0
4102 0
4103 0
4104 0
4105 0
4106 0
4107 0
4108 0
4109 3
-91.0025 2.74713e-07 3.182e-10
1 0 -81.637 90.2826 2.745e-07 87.213 -87.063 92.787 92.937
Tx-Rx 
-25.306 -24.0135 6
-29.5162 58.0476 2
2 1 -82.1706 -89.447 2.74785e-07 87.2159 -93.2857 92.7841 94.0347
Tx-R-Rx 
-25.306 -24.0135 6
-30.2242 45.7141 2.60076
-29.5162 58.0476 2
3 2 -90.0929 -46.535 2.75756e-07 95.5551 -93.2857 95.5551 94.0347
Tx-R-R-Rx 
-25.306 -24.0135 6
-29.6466 37.5246 -1.77636e-15
-30.2242 45.7141 0.798482
-29.5162 58.0476 2
4110 1
-81.6275 2.74199e-07 0
1 0 -81.6275 108.693 2.74199e-07 87.21 -88.8061 92.79 91.1939
Tx-Rx 
-25.306 -24.0135 6
-27.0162 58.0476 2
4111 0
4112 0
4113 0
4114 0
4115 0
4116 0
4117 0
4118 0
4119 0
4120 0
4121 0
4122 0
4123 0
4124 0
4125 0
4126 0
4127 0
4128 0
4129 0
4130 0
4131 0
4132 0
4133 0
4134 0
4135 0
4136 0
4137 0
4138 0
4139 0
4140 0
4141 0
4142 0
4143 0
4144 0
4145 0
4146 0
4147 0
4148 0
4149 0
4150 0
4151 0
4152 0
4153 0
4154 0
4155 0
4156 0
4157 0
4158 0
4159 0
4160 0
4161 0
4162 0
4163 0
4164 0
4165 0
4166 0
4167 0
4168 0
4169 0
4170 0
4171 0
4172 0
4173 0
4174 0
4175 0
4176 0
4177 0
4178 0
4179 0
4180 0
4181 0
4182 0
4183 0
4184 0
4185 0
4186 0
4187 0
4188 0
4189 4
-81.4987 2.83127e-07 3.54252e-10
1 0 -81.8964 45.0638 2.82821e-07 87.2951 -87.1497 92.7049 92.8503
Tx-Rx 
-25.306 -24.0135 6
-29.5162 60.5476 2
2 1 -82.4158 -131.319 2.83104e-07 87.2978 -93.1888 92.7022 93.9378
Tx-R-Rx 
-25.306 -24.0135 6
-30.2367 47.6156 2.6113
-29.5162 60.5476 2
3 1 -85.8167 -14.1504 2.83583e-07 94.9951 -87.1497 94.9951 92.8503
Tx-R-Rx 
-25.306 -24.0135 6
-28.549 41.1214 0.3
-29.5162 60.5476 2
4 2 -90.0762 -52.8355 2.84046e-07 95.3924 -93.1888 95.3924 93.9378
Tx-R-R-Rx 
-25.306 -24.0135 6
-29.6711 39.3994 -8.88178e-16
-30.2367 47.6156 0.777393
-29.5162 60.5476 2
4190 2
-78.7961 2.8275e-07 3.45475e-10
1 0 -81.8875 52.3287 2.8253e-07 87.2923 -88.8414 92.7077 91.1586
Tx-Rx 
-25.306 -24.0135 6
-27.0162 60.5476 2
2 1 -85.8119 -7.8723 2.83293e-07 95.0002 -88.8414 95.0002 91.1586
Tx-R-Rx 
-25.306 -24.0135 6
-26.6233 41.1214 0.3
-27.0162 60.5476 2
4191 0
4192 0
4193 0
4194 0
4195 0
4196 0
4197 0
4198 0
4199 0
4200 0
4201 0
4202 0
4203 0
4204 0
4205 0
4206 0
4207 0
4208 0
4209 0
4210 0
4211 0
4212 0
4213 0
4214 0
4215 0
4216 0
4217 0
4218 0
4219 0
4220 0
4221 0
4222 0
4223 0
4224 0
4225 0
4226 0
4227 0
4228 0
4229 0
4230 0
4231 0
4232 0
4233 0
4234 0
4235 0
4236 0
4237 0
4238 0
4239 0
4240 0
4241 0
4242 0
4243 0
4244 0
4245 0
4246 0
4247 0
4248 0
4249 0
4250 0
4251 0
4252 0
4253 0
4254 0
4255 0
4256 0
4257 0
4258 0
4259 0
4260 0
4261 0
4262 0
4263 0
4264 0
4265 0
4266 0
4267 0
4268 0
4269 3
-76.6911 2.91462e-07 4.35785e-10
1 0 -82.1484 -1.61167 2.91144e-07 87.3725 -87.2314 92.6275 92.7686
Tx-Rx 
-25.306 -24.0135 6
-29.5162 63.0476 2
2 1 -85.9526 -33.4787 2.91884e-07 94.8527 -87.2314 94.8527 92.7686
Tx-R-Rx 
-25.306 -24.0135 6
-28.549 43.0471 0.3
-29.5162 63.0476 2
3 2 -90.0704 -62.7909 2.9234e-07 95.239 -93.0975 95.239 93.8465
Tx-R-R-Rx 
-25.306 -24.0135 6
-29.6956 41.2743 -8.88178e-16
-30.249 49.5053 0.756434
-29.5162 63.0476 2
4270 2
-78.159 2.91079e-07 3.37489e-10
1 0 -82.1399 -4.8559 2.90861e-07 87.3699 -88.8747 92.6301 91.1253
Tx-Rx 
-25.306 -24.0135 6
-27.0162 63.0476 2
2 1 -85.9479 -37.6277 2.91602e-07 94.8574 -88.8747 94.8574 91.1253
Tx-R-Rx 
-25.306 -24.0135 6
-26.6233 43.0471 0.3
-27.0162 63.0476 2
4271 0
4272 0
4273 0
4274 0
4275 0
4276 0
4277 0
4278 0
4279 0
4280 0
4281 0
4282 0
4283 0
4284 0
4285 0
4286 0
4287 0
4288 0
4289 0
4290 0
4291 0
4292 0
4293 0
4294 0
4295 0
4296 0
4297 0
4298 0
4299 0
4300 0
4301 0
4302 0
4303 0
4304 0
4305 0
4306 0
4307 0
4308 0
4309 0
4310 0
4311 0
4312 0
4313 0
4314 0
4315 0
4316 0
4317 0
4318 0
4319 0
4320 0
4321 0
4322 0
4323 0
4324 0
4325 0
4326 0
4327 0
4328 0
4329 0
4330 0
4331 0
4332 0
4333 0
4334 0
4335 0
4336 0
4337 0
4338 0
4339 0
4340 0
4341 0
4342 0
4343 0
4344 0
4345 0
4346 0
4347 0
4348 0
4349 2
-79.583 2.99638e-07 4.12081e-10
1 0 -82.3932 -49.6222 2.99468e-07 87.4456 -87.3086 92.5544 92.6914
Tx-Rx 
-25.306 -24.0135 6
-29.5162 65.5476 2
2 2 -90.0741 -76.0996 3.00636e-07 95.0941 -93.0113 95.0941 93.7602
Tx-R-R-Rx 
-25.306 -24.0135 6
-29.7201 43.1491 -8.88178e-16
-30.2613 51.3833 0.735605
-29.5162 65.5476 2
4350 2
-78.0334 2.99408e-07 3.29804e-10
1 0 -82.3852 -62.7919 2.99193e-07 87.4432 -88.9061 92.5568 91.0939
Tx-Rx 
-25.306 -24.0135 6
-27.0162 65.5476 2
2 1 -86.0836 -69.6544 2.99913e-07 94.7225 -88.9061 94.7225 91.0939
Tx-R-Rx 
-25.306 -24.0135 6
-26.6233 44.9728 0.3
-27.0162 65.5476 2
4351 0
4352 0
4353 0
4354 0
4355 0
4356 0
4357 0
4358 0
4359 0
4360 0
4361 0
4362 0
4363 0
4364 0
4365 0
4366 0
4367 0
4368 0
4369 0
4370 0
4371 0
4372 0
4373 0
4374 0
4375 0
4376 0
4377 0
4378 0
4379 0
4380 0
4381 0
4382 0
4383 0
4384 0
4385 0
4386 0
4387 0
4388 0
4389 0
4390 0
4391 0
4392 0
4393 0
4394 0
4395 0
4396 0
4397 0
4398 0
4399 0
4400 0
4401 0
4402 0
4403 0
4404 0
4405 0
4406 0
4407 0
4408 0
4409 0
4410 0
4411 0
4412 0
4413 0
4414 0
4415 0
4416 0
4417 0
4418 0
4419 0
4420 0
4421 0
4422 0
4423 0
4424 0
4425 0
4426 0
4427 0
4428 0
4429 2
-79.573 3.07967e-07 4.10264e-10
1 0 -82.6314 -98.8596 3.07793e-07 87.5147 -87.3815 92.4853 92.6185
Tx-Rx 
-25.306 -24.0135 6
-29.5162 68.0476 2
2 2 -90.086 -92.4923 3.08934e-07 94.9569 -92.9297 94.9569 93.6787
Tx-R-R-Rx 
-25.306 -24.0135 6
-29.7446 45.024 -1.77636e-15
-30.2735 53.2498 0.714903
-29.5162 68.0476 2
4430 2
-78.3151 3.07738e-07 3.22409e-10
1 0 -82.6239 -121.418 3.07525e-07 87.5125 -88.9358 92.4875 91.0642
Tx-Rx 
-25.306 -24.0135 6
-27.0162 68.0476 2
2 1 -86.2188 -103.769 3.08226e-07 94.5948 -88.9358 94.5948 91.0642
Tx-R-Rx 
-25.306 -24.0135 6
-26.6233 46.8984 0.3
-27.0162 68.0476 2
4431 0
4432 0
4433 0
4434 0
4435 0
4436 0
4437 0
4438 0
4439 0
4440 0
4441 0
4442 0
4443 0
4444 0
4445 0
4446 0
4447 0
4448 0
4449 0
4450 0
4451 0
4452 0
4453 0
4454 0
4455 0
4456 0
4457 0
4458 0
4459 0
4460 0
4461 0
4462 0
4463 0
4464 0
4465 0
4466 0
4467 0
4468 0
4469 0
4470 0
4471 0
4472 0
4473 0
4474 0
4475 0
4476 0
4477 0
4478 0
4479 0
4480 0
